COUNTER,AF3,F7,F3,FC5,T7,P7,O1,O2,P8,T8,FC6,F4,F8,AF4,GYROX,GYROY,TIMESTAMP,FUNC_ID,FUNC_VALUE,MARKER,SYNC_SIGNAL,USER,CLASS
26.0,4702.05128205,4566.15384615,4605.12820513,4307.69230769,4505.64102564,4024.1025641,4569.74358974,4678.46153846,4558.46153846,4677.94871795,4440.51282051,4463.58974359,4331.28205128,4325.64102564,1695.0,1662.0,9.571,0.0,0.0,0.0,0.0,mike,0
27.0,4702.05128205,4567.69230769,4605.64102564,4306.66666667,4508.71794872,4020.51282051,4571.28205128,4678.46153846,4556.92307692,4673.84615385,4442.56410256,4460.51282051,4331.28205128,4326.66666667,1695.0,1661.0,9.579,0.0,0.0,0.0,0.0,mike,0
28.0,4705.12820513,4571.79487179,4606.15384615,4307.69230769,4504.1025641,4020.51282051,4571.28205128,4679.48717949,4557.43589744,4672.82051282,4446.15384615,4461.53846154,4330.25641026,4323.58974359,1695.0,1662.0,9.587,0.0,0.0,0.0,0.0,mike,0
29.0,4703.58974359,4562.56410256,4604.61538462,4307.17948718,4487.69230769,4018.46153846,4569.74358974,4678.46153846,4554.87179487,4667.69230769,4441.02564103,4460.0,4326.15384615,4316.41025641,1694.0,1662.0,9.594,0.0,0.0,0.0,0.0,mike,0
30.0,4700.0,4553.33333333,4602.05128205,4305.64102564,4488.71794872,4016.92307692,4566.66666667,4676.92307692,4551.28205128,4662.05128205,4433.84615385,4457.94871795,4323.07692308,4312.82051282,1695.0,1662.0,9.602,0.0,0.0,0.0,0.0,mike,0
31.0,4702.56410256,4566.15384615,4607.17948718,4307.17948718,4506.66666667,4022.05128205,4569.74358974,4683.07692308,4554.87179487,4669.74358974,4441.53846154,4463.07692308,4326.15384615,4320.0,1694.0,1661.0,9.617,0.0,0.0,0.0,0.0,mike,0
32.0,4704.1025641,4571.28205128,4611.79487179,4307.17948718,4509.74358974,4020.51282051,4570.76923077,4687.17948718,4556.92307692,4674.35897436,4446.66666667,4465.64102564,4327.69230769,4321.53846154,1694.0,1662.0,9.618,0.0,0.0,0.0,0.0,mike,0
33.0,4702.56410256,4556.92307692,4607.17948718,4303.07692308,4501.53846154,4017.94871795,4568.20512821,4681.02564103,4554.35897436,4665.64102564,4438.46153846,4462.05128205,4325.64102564,4314.87179487,1694.0,1660.0,9.63,0.0,0.0,0.0,0.0,mike,0
34.0,4702.56410256,4557.43589744,4606.15384615,4305.12820513,4503.07692308,4026.66666667,4571.79487179,4680.0,4558.46153846,4665.12820513,4437.43589744,4460.51282051,4325.12820513,4316.92307692,1693.0,1662.0,9.639,0.0,0.0,0.0,0.0,mike,0
35.0,4706.15384615,4570.25641026,4612.82051282,4309.23076923,4508.20512821,4032.30769231,4576.41025641,4686.15384615,4565.64102564,4674.35897436,4444.61538462,4462.56410256,4326.66666667,4324.1025641,1694.0,1661.0,9.65,0.0,0.0,0.0,0.0,mike,0
36.0,4711.28205128,4573.84615385,4619.48717949,4311.28205128,4508.20512821,4028.71794872,4580.51282051,4687.17948718,4567.17948718,4677.94871795,4445.12820513,4467.69230769,4329.74358974,4325.64102564,1691.0,1661.0,9.651,0.0,0.0,0.0,0.0,mike,0
37.0,4717.94871795,4572.82051282,4624.61538462,4312.82051282,4507.17948718,4028.20512821,4583.58974359,4686.66666667,4568.20512821,4679.48717949,4444.61538462,4473.84615385,4334.87179487,4326.15384615,1693.0,1661.0,9.657,0.0,0.0,0.0,0.0,mike,0
38.0,4721.02564103,4570.76923077,4622.05128205,4312.82051282,4506.15384615,4029.23076923,4577.94871795,4688.20512821,4568.71794872,4677.94871795,4446.66666667,4476.41025641,4335.8974359,4327.17948718,1693.0,1661.0,9.665,0.0,0.0,0.0,0.0,mike,0
39.0,4712.82051282,4568.20512821,4616.41025641,4310.25641026,4505.64102564,4023.58974359,4568.71794872,4687.69230769,4567.69230769,4674.35897436,4445.64102564,4470.76923077,4329.74358974,4320.51282051,1692.0,1661.0,9.673,0.0,0.0,0.0,0.0,mike,0
40.0,4704.1025641,4566.15384615,4614.87179487,4307.69230769,4503.07692308,4018.46153846,4569.74358974,4687.17948718,4568.20512821,4676.92307692,4443.58974359,4463.58974359,4327.17948718,4316.41025641,1693.0,1661.0,9.681,0.0,0.0,0.0,0.0,mike,0
41.0,4703.58974359,4561.02564103,4613.84615385,4305.12820513,4502.05128205,4020.51282051,4572.82051282,4685.12820513,4563.58974359,4676.41025641,4444.61538462,4460.0,4327.17948718,4318.97435897,1693.0,1662.0,9.688,0.0,0.0,0.0,0.0,mike,0
42.0,4703.07692308,4553.84615385,4610.25641026,4303.07692308,4504.1025641,4022.56410256,4568.71794872,4681.02564103,4556.41025641,4670.76923077,4442.56410256,4458.46153846,4324.1025641,4318.46153846,1693.0,1660.0,9.696,0.0,0.0,0.0,0.0,mike,0
43.0,4702.05128205,4560.51282051,4612.30769231,4305.64102564,4504.61538462,4023.07692308,4572.30769231,4686.66666667,4561.53846154,4675.8974359,4442.05128205,4464.1025641,4327.69230769,4318.46153846,1692.0,1661.0,9.705,0.0,0.0,0.0,0.0,mike,0
44.0,4712.82051282,4571.28205128,4619.48717949,4312.30769231,4507.69230769,4028.71794872,4586.66666667,4699.48717949,4574.35897436,4686.15384615,4452.30769231,4474.35897436,4340.0,4325.64102564,1694.0,1660.0,9.712,0.0,0.0,0.0,0.0,mike,0
45.0,4720.51282051,4571.79487179,4620.0,4315.38461538,4509.74358974,4033.84615385,4589.23076923,4701.53846154,4571.79487179,4682.05128205,4455.8974359,4472.82051282,4339.48717949,4328.71794872,1692.0,1660.0,9.72,0.0,0.0,0.0,0.0,mike,0
46.0,4708.71794872,4567.17948718,4608.71794872,4307.17948718,4503.07692308,4027.69230769,4573.84615385,4687.17948718,4555.38461538,4666.66666667,4440.0,4458.97435897,4324.1025641,4316.41025641,1694.0,1659.0,9.727,0.0,0.0,0.0,0.0,mike,0
47.0,4700.0,4564.1025641,4602.56410256,4299.48717949,4503.58974359,4021.02564103,4565.12820513,4672.30769231,4548.20512821,4661.02564103,4431.79487179,4454.87179487,4318.97435897,4311.28205128,1692.0,1658.0,9.735,0.0,0.0,0.0,0.0,mike,0
48.0,4705.12820513,4564.61538462,4609.74358974,4305.12820513,4506.66666667,4020.0,4568.20512821,4669.74358974,4553.84615385,4664.1025641,4441.53846154,4462.05128205,4326.15384615,4318.97435897,1694.0,1660.0,9.743,0.0,0.0,0.0,0.0,mike,0
49.0,4704.1025641,4566.15384615,4607.17948718,4309.23076923,4493.84615385,4018.97435897,4565.12820513,4672.82051282,4554.87179487,4663.58974359,4444.1025641,4461.02564103,4326.66666667,4318.97435897,1693.0,1659.0,9.751,0.0,0.0,0.0,0.0,mike,0
50.0,4702.05128205,4567.17948718,4598.97435897,4306.66666667,4491.28205128,4021.53846154,4563.07692308,4675.8974359,4553.33333333,4666.15384615,4438.97435897,4456.92307692,4323.58974359,4312.82051282,1693.0,1661.0,9.759,0.0,0.0,0.0,0.0,mike,0
51.0,4706.15384615,4566.66666667,4608.20512821,4308.71794872,4507.17948718,4023.58974359,4566.66666667,4678.97435897,4555.8974359,4671.28205128,4442.05128205,4457.94871795,4326.15384615,4315.8974359,1694.0,1661.0,9.767,0.0,0.0,0.0,0.0,mike,0
52.0,4705.12820513,4566.66666667,4616.41025641,4310.25641026,4509.74358974,4017.94871795,4564.61538462,4677.43589744,4554.87179487,4666.66666667,4442.56410256,4460.0,4326.66666667,4319.48717949,1693.0,1662.0,9.774,0.0,0.0,0.0,0.0,mike,0
53.0,4709.74358974,4569.23076923,4612.82051282,4309.74358974,4502.05128205,4020.0,4565.64102564,4677.43589744,4554.87179487,4666.66666667,4441.53846154,4462.56410256,4325.64102564,4318.46153846,1694.0,1662.0,9.782,0.0,0.0,0.0,0.0,mike,0
54.0,4716.41025641,4568.71794872,4614.35897436,4310.25641026,4505.64102564,4025.64102564,4570.25641026,4678.46153846,4554.87179487,4673.33333333,4442.56410256,4460.51282051,4326.15384615,4318.46153846,1694.0,1662.0,9.79,0.0,0.0,0.0,0.0,mike,0
55.0,4713.84615385,4567.17948718,4618.97435897,4310.76923077,4507.69230769,4024.1025641,4569.74358974,4678.46153846,4555.8974359,4673.33333333,4441.53846154,4461.53846154,4326.66666667,4318.46153846,1694.0,1662.0,9.798,0.0,0.0,0.0,0.0,mike,0
56.0,4712.82051282,4570.25641026,4618.46153846,4311.79487179,4506.66666667,4028.20512821,4575.8974359,4684.61538462,4563.58974359,4673.33333333,4443.58974359,4470.25641026,4328.20512821,4321.53846154,1694.0,1662.0,9.806,0.0,0.0,0.0,0.0,mike,0
57.0,4712.82051282,4569.74358974,4616.92307692,4310.25641026,4509.74358974,4032.82051282,4578.46153846,4686.15384615,4561.53846154,4672.30769231,4444.61538462,4469.23076923,4325.64102564,4321.02564103,1695.0,1662.0,9.82,0.0,0.0,0.0,0.0,mike,0
58.0,4709.74358974,4569.23076923,4620.0,4310.76923077,4506.15384615,4029.74358974,4571.28205128,4681.53846154,4555.38461538,4667.69230769,4443.07692308,4463.07692308,4323.58974359,4318.97435897,1694.0,1661.0,9.824,0.0,0.0,0.0,0.0,mike,0
59.0,4717.43589744,4578.46153846,4626.15384615,4318.97435897,4504.61538462,4032.82051282,4577.43589744,4690.76923077,4566.15384615,4673.33333333,4447.17948718,4472.82051282,4334.87179487,4329.74358974,1694.0,1663.0,9.829,0.0,0.0,0.0,0.0,mike,0
60.0,4722.05128205,4580.0,4624.1025641,4318.97435897,4508.71794872,4034.35897436,4583.07692308,4697.43589744,4574.35897436,4678.46153846,4449.74358974,4478.97435897,4339.48717949,4336.41025641,1693.0,1662.0,9.837,0.0,0.0,0.0,0.0,mike,0
61.0,4710.76923077,4569.23076923,4617.94871795,4310.76923077,4508.71794872,4021.53846154,4569.74358974,4685.12820513,4563.58974359,4671.28205128,4443.58974359,4471.28205128,4328.20512821,4325.64102564,1694.0,1663.0,9.845,0.0,0.0,0.0,0.0,mike,0
62.0,4708.20512821,4568.71794872,4617.94871795,4310.76923077,4504.61538462,4016.92307692,4563.58974359,4677.94871795,4556.41025641,4669.74358974,4443.07692308,4470.76923077,4328.20512821,4321.53846154,1694.0,1662.0,9.853,0.0,0.0,0.0,0.0,mike,0
63.0,4711.79487179,4575.8974359,4618.46153846,4313.84615385,4505.64102564,4025.12820513,4572.30769231,4681.02564103,4558.46153846,4671.79487179,4445.12820513,4473.33333333,4335.38461538,4326.15384615,1693.0,1663.0,9.86,0.0,0.0,0.0,0.0,mike,0
64.0,4711.79487179,4572.30769231,4619.48717949,4314.35897436,4508.20512821,4026.66666667,4572.82051282,4682.56410256,4563.07692308,4673.33333333,4445.12820513,4471.28205128,4332.82051282,4327.17948718,1694.0,1663.0,9.868,0.0,0.0,0.0,0.0,mike,0
65.0,4716.92307692,4568.71794872,4625.64102564,4320.0,4508.71794872,4028.20512821,4571.28205128,4688.20512821,4570.76923077,4680.0,4452.82051282,4477.94871795,4337.94871795,4332.82051282,1693.0,1663.0,9.882,0.0,0.0,0.0,0.0,mike,0
66.0,4714.87179487,4572.82051282,4623.58974359,4317.43589744,4508.71794872,4028.20512821,4570.76923077,4684.61538462,4564.61538462,4676.92307692,4449.23076923,4475.8974359,4338.46153846,4329.74358974,1694.0,1663.0,9.886,0.0,0.0,0.0,0.0,mike,0
67.0,4703.58974359,4568.71794872,4614.35897436,4307.17948718,4505.12820513,4021.53846154,4567.69230769,4668.20512821,4544.61538462,4657.94871795,4431.28205128,4457.94871795,4318.97435897,4314.87179487,1693.0,1663.0,9.892,0.0,0.0,0.0,0.0,mike,0
68.0,4701.53846154,4558.46153846,4608.71794872,4305.64102564,4496.92307692,4017.43589744,4565.12820513,4660.51282051,4536.41025641,4647.17948718,4421.02564103,4447.69230769,4303.58974359,4306.15384615,1694.0,1662.0,9.9,0.0,0.0,0.0,0.0,mike,0
69.0,4700.0,4554.87179487,4602.05128205,4304.61538462,4489.74358974,4020.0,4563.07692308,4663.58974359,4536.92307692,4646.15384615,4417.94871795,4446.66666667,4301.53846154,4300.51282051,1693.0,1662.0,9.907,0.0,0.0,0.0,0.0,mike,0
70.0,4692.82051282,4554.87179487,4600.0,4299.48717949,4489.23076923,4020.0,4564.1025641,4665.64102564,4537.43589744,4644.1025641,4416.92307692,4445.64102564,4303.07692308,4296.41025641,1694.0,1663.0,9.915,0.0,0.0,0.0,0.0,mike,0
71.0,4696.92307692,4556.92307692,4603.58974359,4299.48717949,4497.43589744,4017.43589744,4566.66666667,4671.28205128,4544.61538462,4651.28205128,4423.58974359,4450.76923077,4307.69230769,4303.58974359,1694.0,1663.0,9.923,0.0,0.0,0.0,0.0,mike,0
72.0,4704.61538462,4568.20512821,4608.71794872,4306.66666667,4505.64102564,4022.05128205,4570.76923077,4686.66666667,4561.53846154,4669.23076923,4436.41025641,4460.51282051,4320.0,4315.8974359,1693.0,1663.0,9.931,0.0,0.0,0.0,0.0,mike,0
73.0,4703.58974359,4572.82051282,4614.35897436,4309.74358974,4508.71794872,4029.74358974,4573.84615385,4693.33333333,4570.76923077,4678.97435897,4443.58974359,4461.53846154,4331.79487179,4317.43589744,1694.0,1663.0,9.939,0.0,0.0,0.0,0.0,mike,0
74.0,4703.58974359,4561.53846154,4613.84615385,4311.28205128,4509.74358974,4033.84615385,4575.38461538,4687.69230769,4570.76923077,4677.94871795,4445.64102564,4459.48717949,4336.41025641,4314.35897436,1694.0,1663.0,9.946,0.0,0.0,0.0,0.0,mike,0
75.0,4702.56410256,4554.87179487,4607.69230769,4309.74358974,4505.64102564,4028.20512821,4571.28205128,4680.51282051,4567.17948718,4676.41025641,4444.1025641,4460.0,4332.30769231,4311.79487179,1694.0,1663.0,9.954,0.0,0.0,0.0,0.0,mike,0
76.0,4695.38461538,4555.38461538,4604.61538462,4303.07692308,4500.0,4019.48717949,4564.1025641,4670.76923077,4560.0,4671.28205128,4440.51282051,4457.43589744,4325.64102564,4311.28205128,1694.0,1662.0,9.962,0.0,0.0,0.0,0.0,mike,0
77.0,4696.41025641,4553.33333333,4607.17948718,4303.07692308,4497.94871795,4024.1025641,4565.12820513,4664.61538462,4554.35897436,4663.58974359,4435.8974359,4456.41025641,4323.58974359,4310.76923077,1695.0,1661.0,9.97,0.0,0.0,0.0,0.0,mike,0
78.0,4704.1025641,4555.38461538,4612.30769231,4309.74358974,4496.92307692,4031.28205128,4570.25641026,4668.20512821,4554.87179487,4662.05128205,4433.84615385,4459.48717949,4323.58974359,4309.74358974,1695.0,1660.0,9.978,0.0,0.0,0.0,0.0,mike,0
79.0,4704.1025641,4558.97435897,4616.41025641,4310.25641026,4494.87179487,4024.61538462,4564.1025641,4669.23076923,4555.38461538,4664.61538462,4439.48717949,4462.05128205,4327.69230769,4314.35897436,1695.0,1659.0,9.986,0.0,0.0,0.0,0.0,mike,0
80.0,4701.02564103,4555.8974359,4613.84615385,4302.05128205,4492.82051282,4014.35897436,4552.30769231,4665.12820513,4552.82051282,4662.56410256,4441.53846154,4458.97435897,4327.69230769,4317.94871795,1694.0,1660.0,9.993,0.0,0.0,0.0,0.0,mike,0
81.0,4703.07692308,4553.33333333,4610.76923077,4300.0,4493.33333333,4018.46153846,4557.43589744,4669.74358974,4553.33333333,4663.07692308,4441.53846154,4463.07692308,4325.12820513,4318.46153846,1694.0,1660.0,10.001,0.0,0.0,0.0,0.0,mike,0
82.0,4705.12820513,4556.92307692,4615.8974359,4307.17948718,4494.35897436,4025.64102564,4570.76923077,4678.46153846,4556.92307692,4667.17948718,4443.07692308,4471.28205128,4330.76923077,4321.53846154,1693.0,1661.0,10.009,0.0,0.0,0.0,0.0,mike,0
83.0,4705.12820513,4558.97435897,4617.94871795,4311.28205128,4492.82051282,4023.07692308,4572.30769231,4680.0,4558.46153846,4667.17948718,4443.58974359,4467.17948718,4335.38461538,4321.02564103,1694.0,1661.0,10.017,0.0,0.0,0.0,0.0,mike,0
84.0,4705.12820513,4557.43589744,4614.87179487,4309.23076923,4492.82051282,4018.46153846,4567.17948718,4679.48717949,4558.46153846,4668.20512821,4443.58974359,4458.46153846,4329.74358974,4315.38461538,1693.0,1661.0,10.025,0.0,0.0,0.0,0.0,mike,0
85.0,4700.0,4553.84615385,4607.17948718,4305.64102564,4495.8974359,4017.94871795,4560.51282051,4678.46153846,4556.92307692,4669.23076923,4438.46153846,4458.97435897,4322.56410256,4310.76923077,1693.0,1661.0,10.032,0.0,0.0,0.0,0.0,mike,0
86.0,4693.33333333,4551.28205128,4603.07692308,4303.07692308,4493.33333333,4018.97435897,4555.8974359,4677.94871795,4555.8974359,4665.64102564,4431.28205128,4459.48717949,4322.56410256,4312.30769231,1692.0,1661.0,10.04,0.0,0.0,0.0,0.0,mike,0
87.0,4693.33333333,4550.76923077,4601.53846154,4297.94871795,4491.79487179,4018.46153846,4556.92307692,4674.87179487,4554.35897436,4662.05128205,4429.23076923,4451.28205128,4320.0,4310.76923077,1694.0,1662.0,10.048,0.0,0.0,0.0,0.0,mike,0
88.0,4694.87179487,4550.76923077,4600.51282051,4294.87179487,4501.02564103,4018.97435897,4556.41025641,4670.25641026,4552.82051282,4661.53846154,4428.71794872,4446.66666667,4313.84615385,4304.61538462,1693.0,1662.0,10.056,0.0,0.0,0.0,0.0,mike,0
89.0,4693.33333333,4553.33333333,4605.64102564,4301.02564103,4506.66666667,4018.97435897,4558.46153846,4674.87179487,4554.35897436,4662.05128205,4430.25641026,4453.84615385,4317.43589744,4303.07692308,1693.0,1663.0,10.064,0.0,0.0,0.0,0.0,mike,0
90.0,4695.8974359,4557.94871795,4611.28205128,4306.66666667,4504.61538462,4019.48717949,4567.17948718,4679.48717949,4558.46153846,4665.12820513,4435.38461538,4459.48717949,4325.64102564,4308.71794872,1695.0,1662.0,10.072,0.0,0.0,0.0,0.0,mike,0
91.0,4698.46153846,4556.92307692,4611.79487179,4307.69230769,4495.8974359,4021.02564103,4570.25641026,4675.38461538,4556.92307692,4667.69230769,4437.43589744,4457.94871795,4327.17948718,4313.84615385,1693.0,1663.0,10.079,0.0,0.0,0.0,0.0,mike,0
92.0,4695.38461538,4553.84615385,4609.23076923,4307.69230769,4494.35897436,4020.0,4565.64102564,4670.25641026,4555.38461538,4663.58974359,4433.33333333,4456.41025641,4321.02564103,4309.74358974,1695.0,1662.0,10.087,0.0,0.0,0.0,0.0,mike,0
93.0,4692.82051282,4556.92307692,4606.66666667,4304.61538462,4504.61538462,4022.05128205,4565.12820513,4669.23076923,4552.82051282,4659.48717949,4430.76923077,4453.33333333,4314.35897436,4301.53846154,1694.0,1662.0,10.095,0.0,0.0,0.0,0.0,mike,0
94.0,4685.12820513,4551.28205128,4600.0,4296.92307692,4506.66666667,4022.05128205,4561.02564103,4666.15384615,4543.58974359,4655.38461538,4425.12820513,4443.58974359,4307.69230769,4292.82051282,1695.0,1662.0,10.103,0.0,0.0,0.0,0.0,mike,0
95.0,4676.92307692,4543.07692308,4596.41025641,4292.30769231,4501.53846154,4024.1025641,4557.43589744,4664.1025641,4542.05128205,4653.33333333,4420.51282051,4438.46153846,4306.66666667,4288.71794872,1694.0,1662.0,10.111,0.0,0.0,0.0,0.0,mike,0
96.0,4681.02564103,4549.74358974,4600.51282051,4297.43589744,4504.61538462,4029.23076923,4568.71794872,4672.82051282,4553.33333333,4659.48717949,4425.64102564,4446.66666667,4314.87179487,4292.82051282,1694.0,1662.0,10.119,0.0,0.0,0.0,0.0,mike,0
97.0,4690.76923077,4556.41025641,4604.61538462,4302.05128205,4498.46153846,4025.64102564,4574.35897436,4680.0,4557.94871795,4664.61538462,4432.82051282,4454.87179487,4322.05128205,4297.43589744,1694.0,1662.0,10.129,0.0,0.0,0.0,0.0,mike,0
98.0,4695.38461538,4552.82051282,4608.20512821,4303.58974359,4489.23076923,4020.0,4570.25641026,4680.0,4560.0,4666.15384615,4438.97435897,4458.97435897,4327.69230769,4305.12820513,1695.0,1662.0,10.134,0.0,0.0,0.0,0.0,mike,0
99.0,4698.97435897,4554.87179487,4615.38461538,4307.17948718,4500.51282051,4027.17948718,4575.8974359,4683.07692308,4566.66666667,4670.76923077,4444.61538462,4461.53846154,4333.33333333,4315.8974359,1693.0,1661.0,10.145,0.0,0.0,0.0,0.0,mike,0
100.0,4702.05128205,4561.02564103,4622.05128205,4312.82051282,4509.74358974,4033.33333333,4582.05128205,4686.66666667,4564.61538462,4673.84615385,4447.17948718,4462.05128205,4339.48717949,4318.97435897,1694.0,1662.0,10.15,0.0,0.0,0.0,0.0,mike,0
101.0,4695.8974359,4556.92307692,4611.28205128,4306.15384615,4505.12820513,4025.12820513,4567.17948718,4677.94871795,4554.35897436,4665.64102564,4442.56410256,4458.97435897,4334.87179487,4312.30769231,1695.0,1660.0,10.158,0.0,0.0,0.0,0.0,mike,0
102.0,4691.28205128,4552.82051282,4600.51282051,4294.87179487,4502.56410256,4018.46153846,4554.35897436,4668.20512821,4553.33333333,4658.97435897,4440.51282051,4455.8974359,4326.15384615,4307.69230769,1694.0,1661.0,10.166,0.0,0.0,0.0,0.0,mike,0
103.0,4697.43589744,4555.8974359,4610.76923077,4300.51282051,4504.1025641,4022.56410256,4561.53846154,4675.38461538,4560.51282051,4669.74358974,4445.12820513,4458.46153846,4334.35897436,4312.30769231,1695.0,1661.0,10.173,0.0,0.0,0.0,0.0,mike,0
104.0,4697.94871795,4556.41025641,4614.87179487,4303.58974359,4502.56410256,4022.56410256,4562.56410256,4680.0,4561.53846154,4672.30769231,4442.05128205,4460.0,4340.0,4314.35897436,1694.0,1661.0,10.181,0.0,0.0,0.0,0.0,mike,0
105.0,4691.28205128,4550.25641026,4605.12820513,4295.8974359,4504.1025641,4019.48717949,4558.46153846,4672.82051282,4552.30769231,4661.53846154,4435.38461538,4456.41025641,4326.15384615,4307.17948718,1694.0,1661.0,10.189,0.0,0.0,0.0,0.0,mike,0
106.0,4698.97435897,4552.82051282,4609.74358974,4303.58974359,4508.71794872,4024.1025641,4568.20512821,4675.38461538,4556.41025641,4664.61538462,4440.0,4458.97435897,4326.66666667,4308.20512821,1695.0,1661.0,10.197,0.0,0.0,0.0,0.0,mike,0
107.0,4709.74358974,4566.66666667,4621.53846154,4318.46153846,4509.23076923,4033.33333333,4576.41025641,4688.20512821,4570.76923077,4678.97435897,4448.71794872,4463.58974359,4345.12820513,4320.51282051,1694.0,1662.0,10.205,0.0,0.0,0.0,0.0,mike,0
108.0,4698.97435897,4565.64102564,4616.41025641,4313.33333333,4511.28205128,4033.33333333,4572.82051282,4688.71794872,4565.64102564,4676.41025641,4446.66666667,4461.53846154,4342.56410256,4321.02564103,1694.0,1660.0,10.212,0.0,0.0,0.0,0.0,mike,0
109.0,4690.76923077,4554.87179487,4610.25641026,4302.05128205,4506.66666667,4026.15384615,4566.66666667,4676.41025641,4552.82051282,4665.12820513,4442.05128205,4460.0,4326.66666667,4311.28205128,1694.0,1661.0,10.223,0.0,0.0,0.0,0.0,mike,0
110.0,4695.38461538,4553.84615385,4609.74358974,4300.0,4494.87179487,4022.05128205,4560.51282051,4666.15384615,4551.28205128,4661.02564103,4435.8974359,4455.38461538,4324.61538462,4308.20512821,1694.0,1661.0,10.229,0.0,0.0,0.0,0.0,mike,0
111.0,4695.38461538,4555.8974359,4607.17948718,4298.46153846,4494.35897436,4021.02564103,4555.38461538,4663.58974359,4551.28205128,4659.48717949,4429.74358974,4447.69230769,4325.12820513,4310.25641026,1694.0,1661.0,10.236,0.0,0.0,0.0,0.0,mike,0
112.0,4692.82051282,4555.38461538,4608.71794872,4297.43589744,4506.15384615,4021.02564103,4556.92307692,4665.12820513,4550.76923077,4661.53846154,4429.74358974,4450.76923077,4322.56410256,4309.23076923,1695.0,1661.0,10.244,0.0,0.0,0.0,0.0,mike,0
113.0,4693.84615385,4551.79487179,4608.20512821,4296.41025641,4507.69230769,4016.92307692,4553.84615385,4662.56410256,4550.25641026,4661.53846154,4428.71794872,4456.92307692,4316.92307692,4300.51282051,1693.0,1662.0,10.266,0.0,0.0,0.0,0.0,mike,0
114.0,4700.51282051,4555.38461538,4608.71794872,4301.02564103,4503.07692308,4017.43589744,4555.8974359,4664.61538462,4552.30769231,4661.53846154,4430.25641026,4456.92307692,4321.02564103,4301.53846154,1694.0,1662.0,10.269,0.0,0.0,0.0,0.0,mike,0
115.0,4708.20512821,4566.66666667,4620.0,4310.76923077,4508.71794872,4028.71794872,4569.74358974,4682.05128205,4561.53846154,4670.25641026,4440.51282051,4459.48717949,4332.82051282,4316.41025641,1692.0,1660.0,10.271,0.0,0.0,0.0,0.0,mike,0
116.0,4707.69230769,4570.25641026,4623.58974359,4313.84615385,4511.79487179,4031.28205128,4574.87179487,4692.30769231,4567.69230769,4675.8974359,4445.12820513,4465.12820513,4333.84615385,4323.07692308,1693.0,1660.0,10.275,0.0,0.0,0.0,0.0,mike,0
117.0,4704.61538462,4566.66666667,4618.46153846,4309.74358974,4507.17948718,4023.58974359,4567.17948718,4683.07692308,4565.64102564,4672.30769231,4443.07692308,4465.12820513,4330.76923077,4316.92307692,1692.0,1660.0,10.283,0.0,0.0,0.0,0.0,mike,0
118.0,4705.64102564,4567.69230769,4620.0,4309.74358974,4507.17948718,4025.64102564,4567.17948718,4678.97435897,4565.64102564,4671.28205128,4443.07692308,4463.58974359,4332.30769231,4318.46153846,1693.0,1661.0,10.292,0.0,0.0,0.0,0.0,mike,0
119.0,4705.12820513,4565.12820513,4622.05128205,4312.30769231,4508.20512821,4030.76923077,4572.82051282,4685.64102564,4566.15384615,4673.33333333,4441.53846154,4462.56410256,4330.76923077,4320.0,1693.0,1661.0,10.299,0.0,0.0,0.0,0.0,mike,0
120.0,4700.0,4553.33333333,4616.92307692,4309.23076923,4506.15384615,4022.05128205,4569.74358974,4682.56410256,4558.97435897,4666.15384615,4433.33333333,4459.48717949,4325.12820513,4310.25641026,1694.0,1662.0,10.307,0.0,0.0,0.0,0.0,mike,0
121.0,4698.97435897,4553.33333333,4615.38461538,4307.17948718,4503.58974359,4017.94871795,4565.12820513,4674.35897436,4550.76923077,4658.46153846,4431.28205128,4455.8974359,4323.58974359,4308.20512821,1695.0,1661.0,10.314,0.0,0.0,0.0,0.0,mike,0
122.0,4707.17948718,4566.15384615,4620.51282051,4313.84615385,4506.66666667,4029.74358974,4569.74358974,4678.97435897,4554.35897436,4662.05128205,4437.94871795,4460.0,4326.15384615,4316.92307692,1694.0,1662.0,10.322,0.0,0.0,0.0,0.0,mike,0
123.0,4715.8974359,4574.35897436,4625.12820513,4321.02564103,4511.79487179,4035.8974359,4573.33333333,4686.66666667,4564.61538462,4671.28205128,4443.58974359,4471.28205128,4330.76923077,4324.1025641,1696.0,1661.0,10.33,0.0,0.0,0.0,0.0,mike,0
124.0,4713.33333333,4572.30769231,4624.61538462,4318.46153846,4511.79487179,4032.30769231,4571.79487179,4683.07692308,4563.07692308,4672.82051282,4442.05128205,4473.84615385,4331.79487179,4323.07692308,1694.0,1662.0,10.338,0.0,0.0,0.0,0.0,mike,0
125.0,4706.66666667,4567.17948718,4618.97435897,4312.30769231,4508.20512821,4029.23076923,4568.71794872,4675.38461538,4556.41025641,4669.74358974,4438.97435897,4467.17948718,4328.71794872,4320.51282051,1695.0,1663.0,10.345,0.0,0.0,0.0,0.0,mike,0
126.0,4710.76923077,4569.74358974,4617.94871795,4311.79487179,4506.66666667,4025.12820513,4561.02564103,4677.43589744,4563.07692308,4672.30769231,4441.53846154,4470.25641026,4334.87179487,4324.61538462,1695.0,1662.0,10.354,0.0,0.0,0.0,0.0,mike,0
127.0,4714.35897436,4571.28205128,4621.53846154,4313.33333333,4508.20512821,4020.0,4554.35897436,4684.1025641,4570.76923077,4675.8974359,4446.15384615,4476.41025641,4341.02564103,4327.69230769,1695.0,1663.0,10.361,0.0,0.0,0.0,0.0,mike,0
128.0,4708.20512821,4566.15384615,4622.56410256,4309.74358974,4508.71794872,4018.97435897,4557.43589744,4686.66666667,4568.20512821,4672.82051282,4445.12820513,4472.82051282,4335.8974359,4325.12820513,1695.0,1662.0,10.369,0.0,0.0,0.0,0.0,mike,0
0.0,4711.28205128,4567.17948718,4624.61538462,4311.28205128,4507.17948718,4020.51282051,4565.64102564,4688.71794872,4567.17948718,4674.35897436,4444.61538462,4472.30769231,4334.87179487,4326.15384615,1695.0,1663.0,10.377,0.0,0.0,0.0,0.0,mike,0
1.0,4718.97435897,4573.33333333,4628.71794872,4316.41025641,4510.76923077,4024.61538462,4568.71794872,4688.71794872,4571.28205128,4680.0,4453.84615385,4477.94871795,4343.58974359,4333.33333333,1694.0,1663.0,10.385,0.0,0.0,0.0,0.0,mike,0
2.0,4715.38461538,4571.28205128,4626.15384615,4313.33333333,4521.02564103,4028.20512821,4567.69230769,4683.07692308,4568.20512821,4677.43589744,4457.94871795,4476.92307692,4345.12820513,4334.35897436,1694.0,1663.0,10.399,0.0,0.0,0.0,0.0,mike,0
3.0,4710.25641026,4566.66666667,4621.53846154,4311.28205128,4523.58974359,4028.71794872,4571.79487179,4684.1025641,4566.15384615,4675.8974359,4454.87179487,4474.87179487,4345.12820513,4332.30769231,1693.0,1663.0,10.4,0.0,0.0,0.0,0.0,mike,0
4.0,4714.35897436,4571.79487179,4624.61538462,4320.0,4513.33333333,4028.20512821,4577.94871795,4691.28205128,4573.84615385,4680.0,4456.41025641,4475.8974359,4349.23076923,4334.87179487,1693.0,1662.0,10.408,0.0,0.0,0.0,0.0,mike,0
5.0,4707.17948718,4569.23076923,4623.07692308,4316.92307692,4505.64102564,4026.15384615,4574.35897436,4683.58974359,4569.74358974,4673.33333333,4447.17948718,4469.74358974,4338.97435897,4324.61538462,1693.0,1663.0,10.416,0.0,0.0,0.0,0.0,mike,0
6.0,4692.82051282,4554.35897436,4611.28205128,4300.0,4506.15384615,4017.94871795,4566.66666667,4671.79487179,4552.30769231,4661.02564103,4430.76923077,4456.41025641,4321.02564103,4306.66666667,1694.0,1664.0,10.424,0.0,0.0,0.0,0.0,mike,0
7.0,4697.43589744,4551.79487179,4608.20512821,4301.02564103,4506.15384615,4013.84615385,4566.15384615,4679.48717949,4555.8974359,4665.64102564,4435.38461538,4455.8974359,4325.64102564,4309.74358974,1693.0,1663.0,10.432,0.0,0.0,0.0,0.0,mike,0
8.0,4706.66666667,4565.12820513,4615.38461538,4312.30769231,4504.1025641,4016.92307692,4565.64102564,4686.66666667,4571.28205128,4675.8974359,4448.20512821,4465.64102564,4342.05128205,4324.1025641,1693.0,1664.0,10.439,0.0,0.0,0.0,0.0,mike,0
9.0,4705.12820513,4570.76923077,4617.43589744,4309.74358974,4506.15384615,4020.51282051,4564.61538462,4679.48717949,4567.17948718,4674.87179487,4444.61538462,4467.17948718,4344.1025641,4325.12820513,1692.0,1663.0,10.447,0.0,0.0,0.0,0.0,mike,0
10.0,4703.58974359,4560.51282051,4615.38461538,4302.05128205,4509.23076923,4022.05128205,4566.15384615,4676.41025641,4558.97435897,4671.28205128,4440.51282051,4461.53846154,4335.8974359,4320.0,1693.0,1663.0,10.456,0.0,0.0,0.0,0.0,mike,0
11.0,4702.56410256,4558.46153846,4614.35897436,4302.56410256,4508.20512821,4020.0,4569.23076923,4682.56410256,4565.12820513,4671.28205128,4443.58974359,4462.05128205,4333.84615385,4322.56410256,1693.0,1662.0,10.463,0.0,0.0,0.0,0.0,mike,0
12.0,4704.1025641,4567.69230769,4616.92307692,4309.23076923,4505.64102564,4021.02564103,4577.43589744,4686.15384615,4569.74358974,4675.38461538,4446.15384615,4470.76923077,4339.48717949,4325.64102564,1692.0,1663.0,10.471,0.0,0.0,0.0,0.0,mike,0
13.0,4713.84615385,4572.30769231,4621.53846154,4312.30769231,4509.23076923,4029.23076923,4581.53846154,4688.71794872,4569.74358974,4680.51282051,4447.17948718,4475.8974359,4344.61538462,4328.20512821,1693.0,1662.0,10.479,0.0,0.0,0.0,0.0,mike,0
14.0,4712.82051282,4566.66666667,4620.51282051,4312.30769231,4513.33333333,4029.74358974,4575.8974359,4690.25641026,4571.79487179,4680.51282051,4447.69230769,4471.79487179,4344.61538462,4327.69230769,1692.0,1663.0,10.486,0.0,0.0,0.0,0.0,mike,0
15.0,4697.94871795,4557.94871795,4614.87179487,4304.61538462,4510.25641026,4020.51282051,4567.17948718,4682.56410256,4570.25641026,4674.87179487,4446.15384615,4463.07692308,4339.48717949,4320.0,1693.0,1663.0,10.499,0.0,0.0,0.0,0.0,mike,0
16.0,4692.30769231,4554.35897436,4611.79487179,4297.43589744,4507.17948718,4022.05128205,4565.64102564,4676.92307692,4563.58974359,4671.79487179,4441.53846154,4457.94871795,4334.35897436,4312.30769231,1693.0,1662.0,10.503,0.0,0.0,0.0,0.0,mike,0
17.0,4695.38461538,4556.41025641,4610.25641026,4301.53846154,4506.66666667,4027.17948718,4568.71794872,4677.94871795,4557.94871795,4667.69230769,4435.38461538,4457.43589744,4332.30769231,4310.25641026,1693.0,1663.0,10.511,0.0,0.0,0.0,0.0,mike,0
18.0,4696.41025641,4556.92307692,4607.17948718,4304.61538462,4505.12820513,4019.48717949,4567.69230769,4674.35897436,4556.41025641,4663.07692308,4435.8974359,4456.41025641,4332.30769231,4311.28205128,1693.0,1662.0,10.518,0.0,0.0,0.0,0.0,mike,0
19.0,4699.48717949,4553.84615385,4607.69230769,4297.43589744,4502.56410256,4012.82051282,4564.1025641,4670.25641026,4559.48717949,4666.15384615,4441.53846154,4457.94871795,4334.35897436,4315.8974359,1693.0,1662.0,10.528,0.0,0.0,0.0,0.0,mike,0
20.0,4701.53846154,4556.41025641,4611.79487179,4297.43589744,4493.84615385,4015.38461538,4566.15384615,4683.07692308,4568.71794872,4673.33333333,4444.1025641,4463.58974359,4339.48717949,4320.0,1694.0,1661.0,10.533,0.0,0.0,0.0,0.0,mike,0
21.0,4693.33333333,4555.8974359,4607.69230769,4299.48717949,4487.69230769,4016.41025641,4567.17948718,4689.74358974,4567.69230769,4672.30769231,4439.48717949,4462.05128205,4335.8974359,4315.38461538,1693.0,1662.0,10.542,0.0,0.0,0.0,0.0,mike,0
22.0,4688.20512821,4551.28205128,4602.56410256,4295.8974359,4498.46153846,4017.94871795,4564.61538462,4680.51282051,4558.46153846,4670.25641026,4435.8974359,4457.43589744,4328.71794872,4307.69230769,1694.0,1662.0,10.549,0.0,0.0,0.0,0.0,mike,0
23.0,4697.94871795,4555.38461538,4609.74358974,4300.51282051,4511.79487179,4024.1025641,4569.23076923,4683.58974359,4564.61538462,4674.35897436,4438.97435897,4459.48717949,4335.8974359,4312.30769231,1694.0,1662.0,10.557,0.0,0.0,0.0,0.0,mike,0
24.0,4706.15384615,4560.0,4620.0,4309.74358974,4507.17948718,4023.58974359,4572.82051282,4690.25641026,4574.35897436,4676.41025641,4444.1025641,4462.56410256,4343.58974359,4318.46153846,1696.0,1662.0,10.565,0.0,0.0,0.0,0.0,mike,0
25.0,4701.02564103,4558.46153846,4616.92307692,4304.1025641,4503.58974359,4018.97435897,4567.17948718,4682.05128205,4566.15384615,4671.79487179,4443.58974359,4460.0,4337.43589744,4315.38461538,1696.0,1662.0,10.572,0.0,0.0,0.0,0.0,mike,0
26.0,4695.38461538,4555.38461538,4608.71794872,4296.41025641,4509.23076923,4018.46153846,4565.64102564,4674.35897436,4558.46153846,4666.66666667,4436.41025641,4456.92307692,4331.28205128,4309.74358974,1697.0,1664.0,10.581,0.0,0.0,0.0,0.0,mike,0
27.0,4696.41025641,4556.92307692,4608.71794872,4300.51282051,4508.20512821,4024.1025641,4570.76923077,4678.46153846,4562.56410256,4665.12820513,4431.28205128,4457.43589744,4329.74358974,4308.20512821,1697.0,1662.0,10.588,0.0,0.0,0.0,0.0,mike,0
28.0,4695.38461538,4557.43589744,4614.35897436,4305.64102564,4506.66666667,4029.23076923,4571.28205128,4677.43589744,4560.51282051,4664.61538462,4429.23076923,4453.84615385,4325.64102564,4304.61538462,1696.0,1662.0,10.596,0.0,0.0,0.0,0.0,mike,0
29.0,4695.8974359,4555.8974359,4614.87179487,4302.05128205,4504.61538462,4022.05128205,4561.53846154,4669.74358974,4552.82051282,4660.51282051,4428.71794872,4448.71794872,4324.1025641,4303.07692308,1697.0,1661.0,10.604,0.0,0.0,0.0,0.0,mike,0
30.0,4702.05128205,4557.94871795,4614.87179487,4296.92307692,4501.53846154,4011.28205128,4555.8974359,4667.69230769,4551.79487179,4657.94871795,4429.23076923,4454.35897436,4326.15384615,4309.23076923,1696.0,1662.0,10.612,0.0,0.0,0.0,0.0,mike,0
31.0,4705.64102564,4557.43589744,4617.43589744,4301.53846154,4505.64102564,4014.35897436,4565.12820513,4672.30769231,4552.82051282,4658.46153846,4431.79487179,4460.51282051,4327.69230769,4314.35897436,1697.0,1662.0,10.619,0.0,0.0,0.0,0.0,mike,0
32.0,4704.61538462,4555.8974359,4617.43589744,4306.15384615,4508.20512821,4022.05128205,4570.25641026,4676.92307692,4550.76923077,4660.0,4434.87179487,4459.48717949,4329.23076923,4314.87179487,1696.0,1664.0,10.627,0.0,0.0,0.0,0.0,mike,0
33.0,4712.30769231,4563.58974359,4623.58974359,4308.20512821,4509.23076923,4023.58974359,4570.76923077,4680.0,4557.43589744,4666.66666667,4440.51282051,4465.12820513,4335.38461538,4323.07692308,1696.0,1663.0,10.635,0.0,0.0,0.0,0.0,mike,0
34.0,4719.48717949,4573.33333333,4631.79487179,4311.28205128,4514.35897436,4029.23076923,4578.46153846,4685.12820513,4568.20512821,4674.35897436,4446.15384615,4474.35897436,4344.1025641,4330.76923077,1694.0,1663.0,10.643,0.0,0.0,0.0,0.0,mike,0
35.0,4710.25641026,4566.66666667,4624.61538462,4307.69230769,4515.8974359,4032.30769231,4580.0,4685.64102564,4564.1025641,4668.20512821,4440.0,4467.69230769,4337.94871795,4325.12820513,1696.0,1663.0,10.651,0.0,0.0,0.0,0.0,mike,0
36.0,4693.84615385,4551.28205128,4607.69230769,4296.92307692,4503.07692308,4022.56410256,4565.64102564,4672.82051282,4550.25641026,4652.30769231,4420.51282051,4450.25641026,4315.8974359,4309.74358974,1695.0,1662.0,10.665,0.0,0.0,0.0,0.0,mike,0
37.0,4685.64102564,4547.17948718,4600.51282051,4290.76923077,4491.28205128,4014.35897436,4554.35897436,4661.53846154,4544.61538462,4643.58974359,4407.69230769,4440.51282051,4302.56410256,4297.43589744,1695.0,1664.0,10.669,0.0,0.0,0.0,0.0,mike,0
38.0,4689.74358974,4553.33333333,4606.15384615,4294.35897436,4498.46153846,4021.02564103,4558.97435897,4668.20512821,4552.30769231,4652.30769231,4417.43589744,4443.07692308,4312.30769231,4297.94871795,1694.0,1663.0,10.675,0.0,0.0,0.0,0.0,mike,0
39.0,4691.79487179,4555.38461538,4607.69230769,4295.38461538,4505.64102564,4022.56410256,4561.53846154,4671.28205128,4553.33333333,4660.0,4424.61538462,4446.66666667,4317.94871795,4300.0,1693.0,1664.0,10.682,0.0,0.0,0.0,0.0,mike,0
40.0,4686.15384615,4549.74358974,4603.07692308,4289.23076923,4495.8974359,4011.28205128,4552.30769231,4658.46153846,4544.61538462,4647.69230769,4413.84615385,4442.56410256,4308.20512821,4293.84615385,1695.0,1663.0,10.69,0.0,0.0,0.0,0.0,mike,0
41.0,4691.28205128,4554.87179487,4608.20512821,4291.79487179,4492.82051282,4010.76923077,4556.41025641,4662.05128205,4546.15384615,4646.15384615,4415.38461538,4447.17948718,4312.30769231,4300.0,1693.0,1664.0,10.698,0.0,0.0,0.0,0.0,mike,0
42.0,4709.23076923,4574.35897436,4624.1025641,4303.07692308,4511.79487179,4026.66666667,4573.84615385,4685.64102564,4563.07692308,4667.17948718,4436.92307692,4467.17948718,4333.84615385,4318.97435897,1695.0,1664.0,10.706,0.0,0.0,0.0,0.0,mike,0
43.0,4716.92307692,4582.05128205,4631.79487179,4304.61538462,4519.48717949,4030.76923077,4574.87179487,4692.30769231,4571.28205128,4675.38461538,4446.15384615,4478.46153846,4338.97435897,4327.69230769,1694.0,1665.0,10.714,0.0,0.0,0.0,0.0,mike,0
44.0,4711.28205128,4573.33333333,4629.23076923,4298.97435897,4508.71794872,4022.05128205,4568.20512821,4683.07692308,4564.1025641,4667.17948718,4438.97435897,4473.33333333,4330.25641026,4323.07692308,1696.0,1664.0,10.721,0.0,0.0,0.0,0.0,mike,0
45.0,4710.25641026,4570.25641026,4625.12820513,4299.48717949,4507.69230769,4021.53846154,4573.84615385,4685.64102564,4563.58974359,4667.69230769,4440.51282051,4473.33333333,4332.82051282,4324.1025641,1695.0,1663.0,10.729,0.0,0.0,0.0,0.0,mike,0
46.0,4713.33333333,4572.82051282,4623.58974359,4301.02564103,4511.28205128,4024.1025641,4574.87179487,4690.25641026,4570.25641026,4674.87179487,4444.61538462,4476.41025641,4337.43589744,4328.20512821,1697.0,1664.0,10.737,0.0,0.0,0.0,0.0,mike,0
47.0,4710.76923077,4570.76923077,4624.1025641,4299.48717949,4505.64102564,4019.48717949,4567.69230769,4683.58974359,4568.71794872,4671.28205128,4442.56410256,4471.79487179,4334.87179487,4326.15384615,1696.0,1663.0,10.745,0.0,0.0,0.0,0.0,mike,0
48.0,4706.15384615,4567.69230769,4620.51282051,4296.41025641,4501.53846154,4015.38461538,4564.61538462,4675.8974359,4563.58974359,4664.1025641,4440.51282051,4468.20512821,4334.35897436,4321.53846154,1697.0,1665.0,10.752,0.0,0.0,0.0,0.0,mike,0
49.0,4706.15384615,4568.71794872,4617.43589744,4294.87179487,4507.17948718,4017.94871795,4568.20512821,4678.97435897,4566.66666667,4666.66666667,4440.51282051,4467.69230769,4336.92307692,4322.05128205,1698.0,1664.0,10.761,0.0,0.0,0.0,0.0,mike,0
50.0,4706.66666667,4570.25641026,4617.43589744,4296.41025641,4509.23076923,4018.97435897,4566.66666667,4681.02564103,4568.71794872,4671.79487179,4436.92307692,4463.07692308,4334.87179487,4320.0,1698.0,1665.0,10.769,0.0,0.0,0.0,0.0,mike,0
51.0,4702.05128205,4569.23076923,4616.41025641,4295.8974359,4504.61538462,4015.38461538,4558.97435897,4672.82051282,4557.43589744,4665.12820513,4430.76923077,4457.43589744,4327.17948718,4309.23076923,1700.0,1666.0,10.776,0.0,0.0,0.0,0.0,mike,0
52.0,4699.48717949,4567.69230769,4617.43589744,4293.33333333,4507.17948718,4017.94871795,4560.0,4669.74358974,4551.28205128,4658.97435897,4431.79487179,4458.97435897,4326.15384615,4307.17948718,1700.0,1665.0,10.784,0.0,0.0,0.0,0.0,mike,0
53.0,4704.1025641,4568.20512821,4619.48717949,4295.8974359,4507.69230769,4023.58974359,4568.71794872,4676.92307692,4561.53846154,4665.64102564,4438.46153846,4461.02564103,4332.30769231,4317.43589744,1700.0,1664.0,10.792,0.0,0.0,0.0,0.0,mike,0
54.0,4707.17948718,4571.79487179,4619.48717949,4300.51282051,4505.64102564,4029.23076923,4579.48717949,4685.12820513,4569.74358974,4673.33333333,4444.61538462,4460.0,4337.94871795,4322.05128205,1700.0,1665.0,10.799,0.0,0.0,0.0,0.0,mike,0
55.0,4704.61538462,4571.79487179,4620.51282051,4302.05128205,4514.35897436,4035.8974359,4586.66666667,4686.15384615,4568.71794872,4672.30769231,4440.0,4458.97435897,4335.38461538,4316.92307692,1701.0,1665.0,10.808,0.0,0.0,0.0,0.0,mike,0
56.0,4702.05128205,4567.17948718,4617.94871795,4297.94871795,4518.46153846,4034.87179487,4581.53846154,4683.07692308,4567.17948718,4666.15384615,4429.23076923,4457.43589744,4326.15384615,4309.74358974,1701.0,1666.0,10.815,0.0,0.0,0.0,0.0,mike,0
57.0,4701.02564103,4567.69230769,4615.38461538,4294.35897436,4507.69230769,4021.53846154,4569.23076923,4680.51282051,4566.66666667,4665.64102564,4432.30769231,4457.43589744,4325.64102564,4308.20512821,1703.0,1664.0,10.83,0.0,0.0,0.0,0.0,mike,0
58.0,4704.1025641,4571.79487179,4618.46153846,4297.94871795,4504.61538462,4017.43589744,4569.23076923,4681.53846154,4569.23076923,4672.30769231,4441.02564103,4460.51282051,4333.33333333,4311.79487179,1702.0,1665.0,10.831,0.0,0.0,0.0,0.0,mike,0
59.0,4706.15384615,4568.71794872,4620.0,4298.97435897,4513.33333333,4025.12820513,4575.38461538,4680.51282051,4566.66666667,4671.28205128,4434.87179487,4460.51282051,4331.28205128,4311.28205128,1703.0,1664.0,10.839,0.0,0.0,0.0,0.0,mike,0
60.0,4702.05128205,4564.1025641,4616.92307692,4293.84615385,4507.69230769,4023.07692308,4570.25641026,4671.79487179,4556.41025641,4662.56410256,4427.17948718,4454.35897436,4322.56410256,4306.66666667,1704.0,1665.0,10.846,0.0,0.0,0.0,0.0,mike,0
61.0,4698.46153846,4566.66666667,4617.43589744,4293.33333333,4501.02564103,4019.48717949,4569.23076923,4672.82051282,4555.38461538,4662.56410256,4434.35897436,4457.43589744,4328.71794872,4307.69230769,1703.0,1665.0,10.854,0.0,0.0,0.0,0.0,mike,0
62.0,4707.17948718,4572.30769231,4627.17948718,4298.97435897,4516.41025641,4028.71794872,4579.48717949,4685.12820513,4568.20512821,4672.82051282,4445.12820513,4472.30769231,4342.56410256,4318.46153846,1702.0,1666.0,10.862,0.0,0.0,0.0,0.0,mike,0
63.0,4720.0,4573.84615385,4635.8974359,4306.66666667,4526.66666667,4032.82051282,4585.64102564,4690.76923077,4574.87179487,4678.97435897,4452.30769231,4480.51282051,4350.25641026,4332.30769231,1702.0,1664.0,10.87,0.0,0.0,0.0,0.0,mike,0
64.0,4721.53846154,4572.82051282,4636.92307692,4309.74358974,4513.84615385,4024.1025641,4582.05128205,4688.20512821,4572.82051282,4675.8974359,4458.97435897,4477.43589744,4354.35897436,4336.92307692,1701.0,1665.0,10.878,0.0,0.0,0.0,0.0,mike,0
65.0,4718.46153846,4573.84615385,4633.84615385,4306.15384615,4507.17948718,4022.05128205,4580.0,4688.71794872,4572.30769231,4673.84615385,4458.46153846,4480.51282051,4353.33333333,4334.87179487,1701.0,1664.0,10.885,0.0,0.0,0.0,0.0,mike,0
66.0,4717.43589744,4573.33333333,4631.79487179,4302.05128205,4518.46153846,4027.17948718,4582.56410256,4689.23076923,4570.76923077,4677.43589744,4454.35897436,4483.58974359,4350.76923077,4332.82051282,1699.0,1663.0,10.894,0.0,0.0,0.0,0.0,mike,0
67.0,4718.46153846,4572.30769231,4636.41025641,4305.64102564,4525.64102564,4030.76923077,4586.15384615,4689.74358974,4572.30769231,4682.05128205,4458.46153846,4478.46153846,4352.30769231,4335.38461538,1699.0,1663.0,10.901,0.0,0.0,0.0,0.0,mike,0
68.0,4718.97435897,4572.82051282,4638.97435897,4309.23076923,4522.05128205,4031.28205128,4589.23076923,4692.30769231,4576.41025641,4681.02564103,4459.48717949,4479.48717949,4353.84615385,4336.41025641,1699.0,1663.0,10.909,0.0,0.0,0.0,0.0,mike,0
69.0,4710.25641026,4566.66666667,4626.15384615,4298.46153846,4508.71794872,4021.02564103,4577.43589744,4683.07692308,4565.12820513,4668.71794872,4444.61538462,4472.30769231,4342.56410256,4322.05128205,1697.0,1663.0,10.917,0.0,0.0,0.0,0.0,mike,0
70.0,4701.02564103,4565.64102564,4619.48717949,4293.33333333,4504.61538462,4017.94871795,4569.23076923,4675.38461538,4555.8974359,4663.07692308,4437.43589744,4458.46153846,4335.8974359,4309.74358974,1697.0,1662.0,10.925,0.0,0.0,0.0,0.0,mike,0
71.0,4707.17948718,4576.92307692,4630.25641026,4305.12820513,4515.8974359,4029.74358974,4579.48717949,4681.53846154,4567.69230769,4672.82051282,4446.66666667,4462.05128205,4345.64102564,4316.41025641,1695.0,1662.0,10.932,0.0,0.0,0.0,0.0,mike,0
72.0,4711.28205128,4577.94871795,4627.17948718,4305.12820513,4515.8974359,4027.17948718,4578.46153846,4676.41025641,4566.66666667,4671.79487179,4447.17948718,4465.12820513,4346.66666667,4320.0,1694.0,1662.0,10.94,0.0,0.0,0.0,0.0,mike,0
73.0,4707.17948718,4568.71794872,4620.0,4296.41025641,4504.1025641,4018.46153846,4571.28205128,4670.76923077,4555.38461538,4664.61538462,4442.05128205,4460.51282051,4342.05128205,4319.48717949,1693.0,1662.0,10.948,0.0,0.0,0.0,0.0,mike,0
74.0,4709.74358974,4570.25641026,4629.23076923,4298.46153846,4503.07692308,4025.64102564,4580.0,4681.53846154,4564.1025641,4672.82051282,4447.69230769,4468.20512821,4350.76923077,4326.66666667,1693.0,1662.0,10.956,0.0,0.0,0.0,0.0,mike,0
75.0,4708.71794872,4569.23076923,4628.20512821,4298.46153846,4511.28205128,4024.61538462,4581.02564103,4683.58974359,4572.82051282,4676.92307692,4448.20512821,4470.76923077,4351.79487179,4326.15384615,1691.0,1661.0,10.964,0.0,0.0,0.0,0.0,mike,0
76.0,4700.0,4562.56410256,4618.46153846,4292.30769231,4514.35897436,4014.87179487,4569.23076923,4677.94871795,4566.15384615,4670.76923077,4442.56410256,4461.02564103,4343.07692308,4315.8974359,1693.0,1662.0,10.971,0.0,0.0,0.0,0.0,mike,0
77.0,4701.53846154,4565.64102564,4620.0,4295.38461538,4514.35897436,4019.48717949,4572.82051282,4685.64102564,4568.20512821,4673.33333333,4444.1025641,4463.07692308,4346.15384615,4316.92307692,1691.0,1661.0,10.979,0.0,0.0,0.0,0.0,mike,0
78.0,4703.58974359,4569.74358974,4621.02564103,4297.43589744,4516.92307692,4023.07692308,4574.87179487,4689.74358974,4570.25641026,4671.28205128,4444.1025641,4464.1025641,4345.12820513,4318.97435897,1691.0,1663.0,10.987,0.0,0.0,0.0,0.0,mike,0
79.0,4700.0,4566.15384615,4620.0,4292.82051282,4520.0,4020.51282051,4570.25641026,4682.56410256,4561.02564103,4663.58974359,4438.97435897,4456.92307692,4336.41025641,4314.35897436,1693.0,1662.0,10.995,0.0,0.0,0.0,0.0,mike,0
80.0,4708.71794872,4569.23076923,4632.82051282,4298.97435897,4524.1025641,4026.66666667,4581.53846154,4687.69230769,4564.61538462,4670.25641026,4443.58974359,4466.66666667,4342.56410256,4320.0,1692.0,1663.0,11.003,0.0,0.0,0.0,0.0,mike,0
81.0,4722.05128205,4574.35897436,4641.53846154,4311.79487179,4524.61538462,4034.35897436,4590.76923077,4698.46153846,4573.84615385,4680.51282051,4449.23076923,4479.48717949,4352.30769231,4329.23076923,1692.0,1661.0,11.011,0.0,0.0,0.0,0.0,mike,0
82.0,4720.51282051,4570.76923077,4634.35897436,4311.79487179,4524.1025641,4031.79487179,4582.56410256,4694.35897436,4572.30769231,4680.51282051,4445.64102564,4475.8974359,4350.76923077,4329.23076923,1691.0,1661.0,11.018,0.0,0.0,0.0,0.0,mike,0
83.0,4714.87179487,4570.76923077,4629.74358974,4301.53846154,4520.51282051,4028.20512821,4578.97435897,4686.66666667,4569.23076923,4678.46153846,4446.66666667,4472.30769231,4348.71794872,4329.23076923,1692.0,1662.0,11.027,0.0,0.0,0.0,0.0,mike,0
84.0,4718.97435897,4578.46153846,4633.33333333,4305.12820513,4520.51282051,4032.30769231,4585.12820513,4691.28205128,4572.82051282,4680.0,4457.94871795,4476.41025641,4350.25641026,4334.87179487,1692.0,1661.0,11.034,0.0,0.0,0.0,0.0,mike,0
85.0,4721.02564103,4578.46153846,4635.38461538,4311.28205128,4524.1025641,4032.30769231,4581.53846154,4696.92307692,4574.35897436,4682.56410256,4461.02564103,4478.97435897,4351.79487179,4338.46153846,1693.0,1663.0,11.042,0.0,0.0,0.0,0.0,mike,0
86.0,4712.30769231,4570.25641026,4627.69230769,4300.51282051,4520.0,4023.07692308,4570.76923077,4690.25641026,4570.25641026,4679.48717949,4450.25641026,4474.35897436,4348.20512821,4333.84615385,1693.0,1663.0,11.05,0.0,0.0,0.0,0.0,mike,0
87.0,4709.74358974,4566.66666667,4622.56410256,4294.87179487,4517.43589744,4020.51282051,4569.23076923,4683.58974359,4565.64102564,4670.76923077,4442.05128205,4471.79487179,4340.51282051,4326.66666667,1694.0,1663.0,11.058,0.0,0.0,0.0,0.0,mike,0
88.0,4718.97435897,4570.25641026,4630.25641026,4306.66666667,4521.53846154,4028.71794872,4575.38461538,4686.66666667,4564.61538462,4670.25641026,4443.58974359,4473.84615385,4339.48717949,4324.61538462,1694.0,1662.0,11.065,0.0,0.0,0.0,0.0,mike,0
89.0,4717.94871795,4569.74358974,4631.28205128,4307.69230769,4523.07692308,4030.76923077,4581.53846154,4689.74358974,4569.23076923,4677.94871795,4445.64102564,4473.84615385,4342.56410256,4327.17948718,1694.0,1663.0,11.073,0.0,0.0,0.0,0.0,mike,0
90.0,4703.07692308,4566.66666667,4622.56410256,4294.35897436,4518.97435897,4026.66666667,4584.1025641,4690.25641026,4570.25641026,4678.97435897,4443.07692308,4470.25641026,4340.51282051,4324.61538462,1694.0,1662.0,11.081,0.0,0.0,0.0,0.0,mike,0
91.0,4705.12820513,4569.23076923,4624.61538462,4295.38461538,4518.97435897,4030.76923077,4586.66666667,4695.8974359,4572.82051282,4680.51282051,4443.07692308,4473.33333333,4340.0,4324.61538462,1694.0,1663.0,11.089,0.0,0.0,0.0,0.0,mike,0
92.0,4719.48717949,4572.82051282,4633.84615385,4307.69230769,4523.58974359,4035.8974359,4588.71794872,4700.0,4579.48717949,4685.64102564,4450.76923077,4477.94871795,4343.58974359,4331.79487179,1695.0,1663.0,11.097,0.0,0.0,0.0,0.0,mike,0
93.0,4720.51282051,4573.84615385,4636.41025641,4309.23076923,4524.61538462,4034.87179487,4588.71794872,4698.46153846,4580.51282051,4684.1025641,4455.38461538,4478.46153846,4343.07692308,4335.38461538,1693.0,1663.0,11.104,0.0,0.0,0.0,0.0,mike,0
94.0,4721.02564103,4573.33333333,4638.46153846,4308.71794872,4524.61538462,4034.87179487,4588.20512821,4701.02564103,4581.02564103,4684.61538462,4456.92307692,4485.64102564,4347.69230769,4343.07692308,1693.0,1664.0,11.112,0.0,0.0,0.0,0.0,mike,0
95.0,4726.66666667,4575.8974359,4641.02564103,4310.76923077,4525.64102564,4034.87179487,4590.25641026,4706.15384615,4588.20512821,4691.79487179,4460.0,4491.28205128,4355.8974359,4350.25641026,1693.0,1663.0,11.12,0.0,0.0,0.0,0.0,mike,0
96.0,4714.87179487,4568.20512821,4627.69230769,4303.07692308,4518.46153846,4025.64102564,4581.02564103,4693.84615385,4576.92307692,4683.58974359,4449.74358974,4474.35897436,4344.1025641,4333.33333333,1693.0,1663.0,11.128,0.0,0.0,0.0,0.0,mike,0
97.0,4691.79487179,4551.28205128,4610.25641026,4290.25641026,4511.79487179,4016.41025641,4566.66666667,4673.33333333,4551.79487179,4662.56410256,4432.82051282,4452.82051282,4324.1025641,4308.20512821,1692.0,1662.0,11.136,0.0,0.0,0.0,0.0,mike,0
98.0,4691.79487179,4553.33333333,4611.28205128,4291.79487179,4517.43589744,4022.56410256,4567.17948718,4676.41025641,4556.92307692,4663.58974359,4437.94871795,4456.41025641,4327.17948718,4310.25641026,1692.0,1663.0,11.144,0.0,0.0,0.0,0.0,mike,0
99.0,4704.1025641,4569.74358974,4621.53846154,4298.46153846,4516.92307692,4028.71794872,4574.35897436,4689.23076923,4572.82051282,4678.46153846,4448.20512821,4466.66666667,4338.97435897,4321.53846154,1692.0,1662.0,11.151,0.0,0.0,0.0,0.0,mike,0
100.0,4697.94871795,4566.15384615,4617.43589744,4295.8974359,4503.58974359,4019.48717949,4569.74358974,4677.43589744,4557.94871795,4670.76923077,4433.33333333,4455.38461538,4329.23076923,4308.71794872,1691.0,1662.0,11.166,0.0,0.0,0.0,0.0,mike,0
101.0,4688.20512821,4552.30769231,4609.23076923,4292.30769231,4504.1025641,4014.35897436,4563.07692308,4665.12820513,4546.15384615,4660.0,4421.53846154,4443.07692308,4318.46153846,4297.43589744,1693.0,1662.0,11.17,0.0,0.0,0.0,0.0,mike,0
102.0,4698.46153846,4560.51282051,4618.97435897,4296.92307692,4523.07692308,4026.66666667,4573.84615385,4684.1025641,4567.69230769,4677.43589744,4438.46153846,4455.38461538,4331.79487179,4312.82051282,1691.0,1663.0,11.175,0.0,0.0,0.0,0.0,mike,0
103.0,4708.71794872,4572.30769231,4627.17948718,4299.48717949,4527.69230769,4033.33333333,4587.17948718,4702.05128205,4584.1025641,4692.82051282,4451.79487179,4465.64102564,4344.61538462,4326.15384615,1692.0,1662.0,11.183,0.0,0.0,0.0,0.0,mike,0
104.0,4702.56410256,4567.17948718,4622.05128205,4297.43589744,4518.46153846,4026.66666667,4585.12820513,4693.33333333,4572.82051282,4685.64102564,4443.58974359,4457.94871795,4341.02564103,4321.02564103,1691.0,1661.0,11.19,0.0,0.0,0.0,0.0,mike,0
105.0,4702.56410256,4565.12820513,4626.15384615,4302.56410256,4521.53846154,4025.64102564,4578.46153846,4687.69230769,4568.71794872,4686.66666667,4447.17948718,4464.61538462,4343.58974359,4325.64102564,1692.0,1662.0,11.198,0.0,0.0,0.0,0.0,mike,0
106.0,4710.25641026,4568.71794872,4633.84615385,4304.61538462,4522.05128205,4027.69230769,4574.35897436,4690.76923077,4574.35897436,4693.84615385,4461.53846154,4479.48717949,4351.79487179,4334.87179487,1692.0,1661.0,11.206,0.0,0.0,0.0,0.0,mike,0
107.0,4705.12820513,4567.17948718,4624.1025641,4294.35897436,4510.25641026,4026.66666667,4570.25641026,4686.66666667,4570.76923077,4686.66666667,4456.41025641,4475.8974359,4349.23076923,4328.20512821,1691.0,1661.0,11.214,0.0,0.0,0.0,0.0,mike,0
108.0,4700.51282051,4567.17948718,4621.02564103,4293.33333333,4510.25641026,4026.66666667,4574.35897436,4686.15384615,4567.69230769,4684.1025641,4450.25641026,4470.25641026,4347.17948718,4325.12820513,1692.0,1661.0,11.222,0.0,0.0,0.0,0.0,mike,0
109.0,4710.76923077,4573.33333333,4634.35897436,4307.17948718,4522.56410256,4027.69230769,4577.43589744,4695.8974359,4574.87179487,4692.82051282,4461.53846154,4476.92307692,4351.79487179,4333.84615385,1692.0,1661.0,11.23,0.0,0.0,0.0,0.0,mike,0
110.0,4714.35897436,4573.84615385,4637.43589744,4307.17948718,4522.05128205,4026.66666667,4571.79487179,4693.33333333,4576.41025641,4690.76923077,4460.0,4476.92307692,4348.20512821,4332.82051282,1692.0,1660.0,11.237,0.0,0.0,0.0,0.0,mike,0
111.0,4703.07692308,4567.69230769,4628.20512821,4297.43589744,4518.46153846,4026.15384615,4573.84615385,4682.56410256,4570.25641026,4681.53846154,4443.07692308,4467.69230769,4340.0,4322.56410256,1693.0,1660.0,11.245,0.0,0.0,0.0,0.0,mike,0
112.0,4704.1025641,4568.20512821,4631.28205128,4303.58974359,4520.0,4026.66666667,4584.1025641,4691.28205128,4572.30769231,4684.1025641,4447.17948718,4466.66666667,4339.48717949,4323.07692308,1693.0,1659.0,11.254,0.0,0.0,0.0,0.0,mike,0
113.0,4721.53846154,4574.35897436,4642.56410256,4315.8974359,4519.48717949,4030.76923077,4589.74358974,4705.12820513,4578.97435897,4691.28205128,4460.0,4476.41025641,4345.64102564,4332.82051282,1694.0,1659.0,11.261,0.0,0.0,0.0,0.0,mike,0
114.0,4720.51282051,4573.84615385,4640.0,4312.82051282,4519.48717949,4034.35897436,4587.69230769,4697.94871795,4572.82051282,4683.07692308,4451.79487179,4477.94871795,4343.58974359,4332.30769231,1694.0,1657.0,11.269,0.0,0.0,0.0,0.0,mike,0
115.0,4702.05128205,4569.23076923,4632.30769231,4301.53846154,4523.58974359,4033.84615385,4583.58974359,4684.61538462,4562.05128205,4669.23076923,4438.46153846,4465.64102564,4332.82051282,4319.48717949,1695.0,1658.0,11.277,0.0,0.0,0.0,0.0,mike,0
116.0,4703.07692308,4568.20512821,4632.30769231,4304.1025641,4525.64102564,4036.41025641,4585.64102564,4684.61538462,4564.61538462,4671.79487179,4441.02564103,4464.61538462,4333.33333333,4314.35897436,1694.0,1657.0,11.284,0.0,0.0,0.0,0.0,mike,0
117.0,4715.8974359,4572.82051282,4635.38461538,4311.79487179,4526.66666667,4037.94871795,4588.20512821,4689.74358974,4572.30769231,4682.56410256,4448.71794872,4473.33333333,4343.58974359,4319.48717949,1695.0,1658.0,11.292,0.0,0.0,0.0,0.0,mike,0
118.0,4710.25641026,4569.23076923,4632.82051282,4305.12820513,4523.58974359,4031.28205128,4578.46153846,4686.66666667,4568.20512821,4682.56410256,4447.69230769,4469.23076923,4342.05128205,4318.46153846,1695.0,1658.0,11.3,0.0,0.0,0.0,0.0,mike,0
119.0,4698.97435897,4556.41025641,4628.71794872,4293.33333333,4517.94871795,4026.15384615,4567.69230769,4677.94871795,4562.56410256,4674.87179487,4441.53846154,4458.46153846,4333.33333333,4313.84615385,1695.0,1659.0,11.308,0.0,0.0,0.0,0.0,mike,0
120.0,4699.48717949,4554.87179487,4627.69230769,4297.43589744,4522.56410256,4027.17948718,4570.25641026,4675.38461538,4565.12820513,4672.30769231,4439.48717949,4455.8974359,4329.74358974,4315.38461538,1696.0,1658.0,11.316,0.0,0.0,0.0,0.0,mike,0
121.0,4708.71794872,4567.17948718,4631.28205128,4307.69230769,4522.56410256,4028.71794872,4573.84615385,4684.1025641,4569.74358974,4675.8974359,4444.1025641,4465.12820513,4335.38461538,4320.51282051,1694.0,1659.0,11.323,0.0,0.0,0.0,0.0,mike,0
122.0,4717.43589744,4574.35897436,4636.41025641,4311.28205128,4511.28205128,4030.76923077,4574.35897436,4690.76923077,4570.76923077,4679.48717949,4445.64102564,4473.33333333,4341.53846154,4324.61538462,1696.0,1659.0,11.332,0.0,0.0,0.0,0.0,mike,0
123.0,4714.87179487,4570.25641026,4633.33333333,4310.25641026,4513.33333333,4031.79487179,4577.43589744,4687.69230769,4568.71794872,4677.43589744,4443.07692308,4467.17948718,4335.38461538,4322.05128205,1694.0,1659.0,11.339,0.0,0.0,0.0,0.0,mike,0
124.0,4706.15384615,4567.69230769,4629.74358974,4304.61538462,4526.66666667,4031.79487179,4581.53846154,4687.69230769,4567.17948718,4674.35897436,4443.07692308,4460.0,4327.69230769,4319.48717949,1695.0,1660.0,11.347,0.0,0.0,0.0,0.0,mike,0
125.0,4711.79487179,4568.71794872,4634.87179487,4305.12820513,4526.66666667,4032.30769231,4584.61538462,4693.33333333,4569.74358974,4678.97435897,4444.61538462,4470.25641026,4336.41025641,4326.15384615,1695.0,1660.0,11.355,0.0,0.0,0.0,0.0,mike,0
126.0,4720.51282051,4571.28205128,4637.43589744,4310.76923077,4520.51282051,4030.76923077,4584.61538462,4695.8974359,4572.82051282,4686.15384615,4448.71794872,4480.0,4346.15384615,4329.74358974,1694.0,1661.0,11.363,0.0,0.0,0.0,0.0,mike,0
127.0,4718.46153846,4570.76923077,4636.92307692,4309.74358974,4520.0,4030.25641026,4582.05128205,4694.87179487,4572.30769231,4688.20512821,4456.41025641,4475.38461538,4342.05128205,4327.69230769,1694.0,1660.0,11.371,0.0,0.0,0.0,0.0,mike,0
128.0,4721.53846154,4571.28205128,4643.07692308,4310.25641026,4522.56410256,4034.35897436,4584.61538462,4695.38461538,4571.28205128,4687.17948718,4458.97435897,4475.8974359,4342.56410256,4333.33333333,1694.0,1660.0,11.378,0.0,0.0,0.0,0.0,mike,0
0.0,4728.20512821,4577.43589744,4650.76923077,4315.38461538,4529.23076923,4037.94871795,4587.69230769,4695.38461538,4571.28205128,4687.69230769,4457.43589744,4478.46153846,4350.25641026,4336.41025641,1693.0,1661.0,11.386,0.0,0.0,0.0,0.0,mike,0
1.0,4729.23076923,4580.0,4649.23076923,4316.92307692,4532.82051282,4038.97435897,4588.71794872,4695.8974359,4572.82051282,4690.25641026,4457.94871795,4477.94871795,4351.79487179,4333.84615385,1693.0,1662.0,11.394,0.0,0.0,0.0,0.0,mike,0
2.0,4723.58974359,4573.33333333,4644.61538462,4311.79487179,4527.17948718,4037.94871795,4587.69230769,4695.8974359,4574.87179487,4688.20512821,4455.38461538,4475.38461538,4348.71794872,4333.84615385,1694.0,1661.0,11.402,0.0,0.0,0.0,0.0,mike,0
3.0,4707.17948718,4562.05128205,4634.87179487,4304.1025641,4513.84615385,4027.69230769,4576.92307692,4686.66666667,4567.17948718,4678.46153846,4441.53846154,4459.48717949,4332.82051282,4321.53846154,1693.0,1662.0,11.414,0.0,0.0,0.0,0.0,mike,0
4.0,4689.74358974,4551.79487179,4619.48717949,4292.82051282,4501.02564103,4019.48717949,4567.17948718,4675.38461538,4550.25641026,4662.05128205,4424.1025641,4440.0,4310.25641026,4297.43589744,1694.0,1662.0,11.418,0.0,0.0,0.0,0.0,mike,0
5.0,4693.33333333,4551.79487179,4622.56410256,4290.76923077,4510.25641026,4026.66666667,4575.8974359,4680.0,4549.23076923,4661.02564103,4424.1025641,4443.07692308,4311.28205128,4296.41025641,1692.0,1662.0,11.425,0.0,0.0,0.0,0.0,mike,0
6.0,4708.20512821,4565.12820513,4638.46153846,4302.05128205,4528.20512821,4036.92307692,4586.66666667,4692.82051282,4566.66666667,4680.0,4440.51282051,4459.48717949,4329.23076923,4316.92307692,1693.0,1663.0,11.434,0.0,0.0,0.0,0.0,mike,0
7.0,4711.28205128,4570.76923077,4642.05128205,4309.74358974,4526.66666667,4035.8974359,4581.53846154,4691.79487179,4571.28205128,4686.66666667,4445.64102564,4462.05128205,4334.35897436,4324.61538462,1694.0,1663.0,11.441,0.0,0.0,0.0,0.0,mike,0
8.0,4712.30769231,4568.20512821,4641.53846154,4309.23076923,4519.48717949,4032.82051282,4576.92307692,4688.20512821,4565.64102564,4679.48717949,4443.07692308,4464.1025641,4333.33333333,4323.07692308,1692.0,1663.0,11.449,0.0,0.0,0.0,0.0,mike,0
9.0,4720.0,4578.46153846,4650.25641026,4310.76923077,4525.12820513,4037.43589744,4588.71794872,4697.43589744,4570.25641026,4686.15384615,4453.84615385,4475.8974359,4342.05128205,4332.82051282,1694.0,1663.0,11.456,0.0,0.0,0.0,0.0,mike,0
10.0,4722.05128205,4585.64102564,4651.79487179,4314.35897436,4527.69230769,4037.94871795,4592.30769231,4698.46153846,4574.35897436,4692.82051282,4461.53846154,4478.97435897,4346.66666667,4337.94871795,1693.0,1663.0,11.465,0.0,0.0,0.0,0.0,mike,0
11.0,4719.48717949,4577.43589744,4644.1025641,4311.28205128,4522.56410256,4029.23076923,4576.41025641,4686.66666667,4569.74358974,4684.61538462,4456.92307692,4473.33333333,4342.05128205,4329.74358974,1693.0,1663.0,11.472,0.0,0.0,0.0,0.0,mike,0
12.0,4722.05128205,4577.43589744,4645.64102564,4309.74358974,4519.48717949,4025.12820513,4569.23076923,4687.17948718,4569.74358974,4684.61538462,4457.43589744,4474.35897436,4344.1025641,4330.76923077,1693.0,1663.0,11.48,0.0,0.0,0.0,0.0,mike,0
13.0,4726.15384615,4587.69230769,4649.23076923,4320.51282051,4520.51282051,4031.79487179,4582.56410256,4696.92307692,4573.84615385,4691.79487179,4462.05128205,4477.43589744,4350.25641026,4338.46153846,1694.0,1661.0,11.488,0.0,0.0,0.0,0.0,mike,0
14.0,4724.1025641,4586.15384615,4648.71794872,4326.15384615,4523.07692308,4037.94871795,4588.71794872,4694.87179487,4573.84615385,4690.25641026,4460.0,4476.92307692,4350.25641026,4336.92307692,1692.0,1661.0,11.496,0.0,0.0,0.0,0.0,mike,0
15.0,4723.07692308,4580.51282051,4646.15384615,4312.82051282,4525.12820513,4034.87179487,4579.48717949,4690.76923077,4570.76923077,4686.66666667,4457.94871795,4475.38461538,4347.17948718,4332.82051282,1694.0,1662.0,11.503,0.0,0.0,0.0,0.0,mike,0
16.0,4727.69230769,4587.17948718,4647.17948718,4308.20512821,4525.12820513,4033.33333333,4578.97435897,4690.76923077,4570.25641026,4686.15384615,4459.48717949,4474.87179487,4346.15384615,4334.87179487,1693.0,1662.0,11.511,0.0,0.0,0.0,0.0,mike,0
17.0,4726.66666667,4590.25641026,4648.71794872,4321.53846154,4527.17948718,4036.92307692,4585.12820513,4689.23076923,4571.28205128,4686.15384615,4460.0,4476.92307692,4345.12820513,4335.8974359,1693.0,1663.0,11.519,0.0,0.0,0.0,0.0,mike,0
18.0,4717.43589744,4583.58974359,4643.07692308,4320.51282051,4528.71794872,4035.38461538,4578.97435897,4686.15384615,4567.69230769,4685.12820513,4457.43589744,4474.87179487,4341.53846154,4333.84615385,1693.0,1662.0,11.527,0.0,0.0,0.0,0.0,mike,0
19.0,4717.94871795,4581.53846154,4642.05128205,4310.25641026,4522.56410256,4029.23076923,4575.38461538,4687.69230769,4569.23076923,4685.12820513,4456.41025641,4474.35897436,4342.05128205,4333.33333333,1692.0,1663.0,11.535,0.0,0.0,0.0,0.0,mike,0
20.0,4731.28205128,4586.66666667,4652.30769231,4320.51282051,4523.07692308,4031.28205128,4584.1025641,4695.8974359,4581.02564103,4690.25641026,4461.53846154,4480.0,4349.23076923,4340.0,1692.0,1662.0,11.543,0.0,0.0,0.0,0.0,mike,0
21.0,4734.87179487,4589.74358974,4655.8974359,4330.25641026,4536.92307692,4038.97435897,4590.76923077,4702.56410256,4581.53846154,4694.35897436,4464.1025641,4481.02564103,4354.35897436,4345.12820513,1691.0,1662.0,11.55,0.0,0.0,0.0,0.0,mike,0
22.0,4722.56410256,4584.61538462,4647.17948718,4317.94871795,4538.46153846,4038.46153846,4584.1025641,4696.92307692,4569.74358974,4689.23076923,4459.48717949,4475.38461538,4348.20512821,4337.94871795,1691.0,1663.0,11.558,0.0,0.0,0.0,0.0,mike,0
23.0,4713.33333333,4573.84615385,4641.53846154,4310.25641026,4524.1025641,4032.82051282,4582.05128205,4688.20512821,4567.69230769,4685.64102564,4456.92307692,4473.33333333,4342.56410256,4330.25641026,1691.0,1663.0,11.566,0.0,0.0,0.0,0.0,mike,0
24.0,4711.28205128,4571.28205128,4638.97435897,4311.79487179,4518.46153846,4031.79487179,4585.64102564,4687.69230769,4572.30769231,4685.64102564,4455.38461538,4468.20512821,4342.05128205,4325.64102564,1692.0,1663.0,11.574,0.0,0.0,0.0,0.0,mike,0
25.0,4703.58974359,4571.28205128,4630.76923077,4304.61538462,4520.51282051,4028.71794872,4577.43589744,4684.61538462,4567.69230769,4680.51282051,4446.66666667,4457.94871795,4334.35897436,4315.38461538,1691.0,1663.0,11.583,0.0,0.0,0.0,0.0,mike,0
26.0,4699.48717949,4566.66666667,4628.71794872,4303.58974359,4520.51282051,4028.20512821,4571.79487179,4678.46153846,4564.1025641,4677.43589744,4442.56410256,4455.38461538,4328.20512821,4311.28205128,1693.0,1663.0,11.589,0.0,0.0,0.0,0.0,mike,0
27.0,4708.20512821,4570.25641026,4632.82051282,4312.30769231,4522.05128205,4034.35897436,4583.07692308,4683.07692308,4568.71794872,4681.53846154,4447.17948718,4461.02564103,4334.35897436,4318.46153846,1693.0,1661.0,11.597,0.0,0.0,0.0,0.0,mike,0
28.0,4711.28205128,4577.94871795,4634.87179487,4313.33333333,4520.0,4035.8974359,4587.69230769,4685.64102564,4569.74358974,4682.05128205,4449.23076923,4460.0,4341.53846154,4320.51282051,1693.0,1662.0,11.605,0.0,0.0,0.0,0.0,mike,0
29.0,4704.1025641,4573.84615385,4632.30769231,4310.76923077,4522.56410256,4030.76923077,4579.48717949,4677.94871795,4565.12820513,4678.97435897,4450.25641026,4456.41025641,4341.02564103,4318.46153846,1694.0,1660.0,11.613,0.0,0.0,0.0,0.0,mike,0
30.0,4707.17948718,4569.74358974,4633.84615385,4314.35897436,4532.82051282,4034.87179487,4584.1025641,4681.02564103,4568.20512821,4681.53846154,4451.28205128,4462.05128205,4338.97435897,4321.53846154,1693.0,1661.0,11.621,0.0,0.0,0.0,0.0,mike,0
31.0,4709.74358974,4572.30769231,4632.82051282,4312.82051282,4530.25641026,4038.46153846,4590.25641026,4685.12820513,4570.76923077,4678.46153846,4446.15384615,4460.0,4332.82051282,4314.87179487,1694.0,1660.0,11.628,0.0,0.0,0.0,0.0,mike,0
32.0,4694.35897436,4566.15384615,4621.02564103,4306.66666667,4517.94871795,4028.20512821,4580.51282051,4671.79487179,4556.41025641,4665.12820513,4438.97435897,4443.07692308,4320.51282051,4298.97435897,1693.0,1659.0,11.636,0.0,0.0,0.0,0.0,mike,0
33.0,4690.76923077,4565.64102564,4618.46153846,4308.20512821,4518.46153846,4026.66666667,4580.0,4671.28205128,4547.69230769,4662.56410256,4440.0,4443.07692308,4323.58974359,4300.51282051,1694.0,1660.0,11.645,0.0,0.0,0.0,0.0,mike,0
34.0,4702.05128205,4574.87179487,4628.20512821,4310.25641026,4526.66666667,4035.8974359,4586.66666667,4688.20512821,4561.53846154,4671.79487179,4445.12820513,4459.48717949,4334.87179487,4310.76923077,1694.0,1659.0,11.652,0.0,0.0,0.0,0.0,mike,0
35.0,4702.05128205,4572.82051282,4632.30769231,4310.76923077,4528.20512821,4036.41025641,4583.07692308,4689.23076923,4570.25641026,4674.87179487,4445.12820513,4459.48717949,4334.87179487,4311.79487179,1694.0,1659.0,11.666,0.0,0.0,0.0,0.0,mike,0
36.0,4704.1025641,4571.28205128,4633.33333333,4312.82051282,4521.53846154,4032.30769231,4585.12820513,4689.23076923,4568.20512821,4677.43589744,4447.69230769,4456.92307692,4335.38461538,4311.79487179,1694.0,1658.0,11.669,0.0,0.0,0.0,0.0,mike,0
37.0,4719.48717949,4583.07692308,4641.53846154,4322.05128205,4522.05128205,4037.94871795,4597.94871795,4702.56410256,4573.84615385,4687.69230769,4459.48717949,4471.79487179,4348.20512821,4323.07692308,1694.0,1657.0,11.675,0.0,0.0,0.0,0.0,mike,0
38.0,4721.53846154,4589.74358974,4647.17948718,4328.20512821,4535.38461538,4047.69230769,4602.05128205,4700.0,4575.38461538,4689.23076923,4462.05128205,4477.94871795,4352.82051282,4333.84615385,1694.0,1659.0,11.683,0.0,0.0,0.0,0.0,mike,0
39.0,4718.46153846,4584.61538462,4646.15384615,4325.64102564,4544.1025641,4049.74358974,4597.43589744,4691.28205128,4572.82051282,4687.17948718,4458.97435897,4473.84615385,4348.20512821,4333.33333333,1695.0,1658.0,11.697,0.0,0.0,0.0,0.0,mike,0
40.0,4730.25641026,4586.66666667,4651.28205128,4324.61538462,4542.05128205,4048.71794872,4601.02564103,4702.56410256,4581.53846154,4693.33333333,4467.17948718,4477.43589744,4354.87179487,4334.87179487,1694.0,1660.0,11.701,0.0,0.0,0.0,0.0,mike,0
41.0,4732.82051282,4591.28205128,4654.87179487,4326.15384615,4534.87179487,4046.15384615,4600.51282051,4706.66666667,4583.07692308,4694.87179487,4469.74358974,4479.48717949,4355.38461538,4336.92307692,1694.0,1659.0,11.707,0.0,0.0,0.0,0.0,mike,0
42.0,4720.51282051,4583.58974359,4649.74358974,4322.56410256,4527.69230769,4041.53846154,4589.23076923,4689.74358974,4569.74358974,4684.61538462,4457.94871795,4475.38461538,4342.05128205,4331.79487179,1694.0,1659.0,11.715,0.0,0.0,0.0,0.0,mike,0
43.0,4720.0,4576.41025641,4644.1025641,4316.41025641,4521.02564103,4033.84615385,4582.05128205,4684.1025641,4565.12820513,4679.48717949,4454.35897436,4469.74358974,4341.02564103,4328.20512821,1695.0,1659.0,11.722,0.0,0.0,0.0,0.0,mike,0
44.0,4732.82051282,4583.07692308,4654.35897436,4320.0,4522.56410256,4033.84615385,4586.66666667,4697.43589744,4577.94871795,4692.30769231,4466.66666667,4477.43589744,4355.38461538,4341.53846154,1693.0,1660.0,11.73,0.0,0.0,0.0,0.0,mike,0
45.0,4738.97435897,4593.33333333,4669.23076923,4328.71794872,4536.41025641,4043.58974359,4591.79487179,4704.61538462,4587.69230769,4704.61538462,4476.41025641,4493.33333333,4362.56410256,4355.38461538,1695.0,1661.0,11.738,0.0,0.0,0.0,0.0,mike,0
46.0,4730.25641026,4592.30769231,4663.07692308,4325.12820513,4543.07692308,4044.1025641,4588.71794872,4695.38461538,4579.48717949,4695.8974359,4468.71794872,4484.61538462,4350.76923077,4344.61538462,1694.0,1660.0,11.746,0.0,0.0,0.0,0.0,mike,0
47.0,4714.35897436,4580.51282051,4649.74358974,4314.35897436,4530.25641026,4034.35897436,4582.56410256,4685.12820513,4567.69230769,4684.1025641,4456.41025641,4460.0,4339.48717949,4324.1025641,1693.0,1661.0,11.754,0.0,0.0,0.0,0.0,mike,0
48.0,4707.17948718,4570.25641026,4650.25641026,4312.30769231,4520.51282051,4032.30769231,4582.56410256,4687.69230769,4568.71794872,4685.12820513,4452.30769231,4456.92307692,4337.43589744,4316.92307692,1694.0,1660.0,11.762,0.0,0.0,0.0,0.0,mike,0
49.0,4714.35897436,4568.71794872,4653.84615385,4313.84615385,4527.17948718,4036.92307692,4586.15384615,4691.28205128,4572.30769231,4685.64102564,4454.35897436,4463.58974359,4336.41025641,4322.05128205,1693.0,1661.0,11.769,0.0,0.0,0.0,0.0,mike,0
50.0,4718.97435897,4572.82051282,4650.25641026,4311.28205128,4524.1025641,4034.87179487,4586.15384615,4686.66666667,4565.12820513,4680.0,4453.84615385,4460.0,4334.35897436,4326.66666667,1693.0,1660.0,11.777,0.0,0.0,0.0,0.0,mike,0
51.0,4716.41025641,4577.43589744,4654.35897436,4313.84615385,4521.02564103,4032.30769231,4583.58974359,4690.25641026,4569.23076923,4686.15384615,4455.38461538,4465.12820513,4340.0,4331.79487179,1693.0,1661.0,11.785,0.0,0.0,0.0,0.0,mike,0
52.0,4720.51282051,4583.07692308,4663.07692308,4318.97435897,4537.94871795,4039.48717949,4586.15384615,4707.17948718,4585.64102564,4699.48717949,4466.15384615,4485.12820513,4355.8974359,4343.58974359,1694.0,1661.0,11.796,0.0,0.0,0.0,0.0,mike,0
53.0,4726.66666667,4586.15384615,4663.58974359,4323.07692308,4541.53846154,4045.12820513,4591.28205128,4713.84615385,4593.84615385,4706.66666667,4478.97435897,4492.82051282,4367.69230769,4354.35897436,1693.0,1662.0,11.801,0.0,0.0,0.0,0.0,mike,0
54.0,4725.12820513,4581.53846154,4656.92307692,4324.1025641,4525.12820513,4041.53846154,4592.30769231,4701.02564103,4587.17948718,4703.07692308,4475.8974359,4482.05128205,4360.0,4348.20512821,1693.0,1663.0,11.808,0.0,0.0,0.0,0.0,mike,0
55.0,4717.43589744,4578.46153846,4648.71794872,4316.41025641,4522.05128205,4032.82051282,4577.94871795,4683.07692308,4572.82051282,4688.71794872,4459.48717949,4468.20512821,4340.51282051,4328.71794872,1693.0,1663.0,11.816,0.0,0.0,0.0,0.0,mike,0
56.0,4715.38461538,4583.58974359,4647.69230769,4310.76923077,4527.69230769,4029.74358974,4566.66666667,4678.46153846,4565.64102564,4681.02564103,4455.38461538,4468.20512821,4338.46153846,4324.61538462,1694.0,1664.0,11.824,0.0,0.0,0.0,0.0,mike,0
57.0,4720.0,4583.07692308,4650.25641026,4313.84615385,4526.15384615,4030.76923077,4578.46153846,4687.17948718,4570.76923077,4686.15384615,4462.05128205,4476.41025641,4348.71794872,4335.8974359,1693.0,1662.0,11.833,0.0,0.0,0.0,0.0,mike,0
58.0,4714.87179487,4573.33333333,4648.20512821,4311.79487179,4524.1025641,4027.17948718,4583.58974359,4687.17948718,4569.23076923,4683.58974359,4460.0,4471.28205128,4343.07692308,4336.41025641,1693.0,1664.0,11.84,0.0,0.0,0.0,0.0,mike,0
59.0,4703.07692308,4567.69230769,4643.07692308,4305.64102564,4524.61538462,4027.69230769,4573.33333333,4676.92307692,4556.92307692,4672.82051282,4452.30769231,4460.0,4331.79487179,4326.15384615,1694.0,1663.0,11.848,0.0,0.0,0.0,0.0,mike,0
60.0,4706.15384615,4567.17948718,4645.12820513,4308.71794872,4526.15384615,4034.35897436,4574.35897436,4677.94871795,4556.41025641,4674.87179487,4451.79487179,4462.56410256,4333.84615385,4323.07692308,1693.0,1663.0,11.856,0.0,0.0,0.0,0.0,mike,0
61.0,4718.97435897,4569.23076923,4649.23076923,4312.82051282,4528.71794872,4032.82051282,4578.97435897,4688.71794872,4569.23076923,4687.69230769,4458.97435897,4472.82051282,4345.12820513,4331.79487179,1695.0,1664.0,11.863,0.0,0.0,0.0,0.0,mike,0
62.0,4721.53846154,4576.92307692,4649.74358974,4312.82051282,4526.66666667,4028.20512821,4577.43589744,4693.33333333,4575.38461538,4692.82051282,4462.05128205,4477.43589744,4350.25641026,4336.92307692,1693.0,1663.0,11.871,0.0,0.0,0.0,0.0,mike,0
63.0,4715.8974359,4579.48717949,4649.74358974,4313.33333333,4527.17948718,4035.8974359,4581.53846154,4691.79487179,4570.76923077,4690.25641026,4458.97435897,4471.79487179,4345.64102564,4330.25641026,1693.0,1664.0,11.879,0.0,0.0,0.0,0.0,mike,0
64.0,4710.25641026,4566.66666667,4647.17948718,4311.28205128,4524.1025641,4038.46153846,4581.02564103,4687.69230769,4571.28205128,4686.66666667,4457.43589744,4463.07692308,4342.05128205,4325.12820513,1692.0,1664.0,11.887,0.0,0.0,0.0,0.0,mike,0
65.0,4704.61538462,4555.38461538,4640.51282051,4308.20512821,4510.76923077,4024.1025641,4570.25641026,4682.56410256,4570.76923077,4683.58974359,4456.92307692,4460.51282051,4338.46153846,4325.12820513,1693.0,1664.0,11.894,0.0,0.0,0.0,0.0,mike,0
66.0,4701.53846154,4561.02564103,4636.92307692,4308.71794872,4510.25641026,4020.0,4569.23076923,4676.92307692,4560.51282051,4676.92307692,4450.25641026,4457.94871795,4329.23076923,4318.97435897,1692.0,1663.0,11.902,0.0,0.0,0.0,0.0,mike,0
67.0,4700.51282051,4569.74358974,4634.35897436,4309.74358974,4525.12820513,4027.69230769,4570.76923077,4669.74358974,4550.76923077,4669.23076923,4440.51282051,4447.69230769,4323.07692308,4307.69230769,1693.0,1664.0,11.915,0.0,0.0,0.0,0.0,mike,0
68.0,4701.02564103,4568.20512821,4635.8974359,4308.20512821,4526.66666667,4030.25641026,4569.74358974,4669.74358974,4551.79487179,4671.28205128,4442.05128205,4447.17948718,4329.23076923,4310.25641026,1694.0,1663.0,11.919,0.0,0.0,0.0,0.0,mike,0
69.0,4708.71794872,4566.15384615,4646.15384615,4310.76923077,4522.05128205,4033.33333333,4580.0,4681.02564103,4564.1025641,4682.05128205,4455.38461538,4462.05128205,4339.48717949,4323.07692308,1693.0,1663.0,11.926,0.0,0.0,0.0,0.0,mike,0
70.0,4709.74358974,4567.17948718,4650.76923077,4313.33333333,4526.15384615,4037.43589744,4588.71794872,4686.66666667,4571.79487179,4686.66666667,4463.07692308,4464.61538462,4343.58974359,4328.71794872,1693.0,1663.0,11.934,0.0,0.0,0.0,0.0,mike,0
71.0,4697.94871795,4567.69230769,4645.12820513,4309.74358974,4524.1025641,4036.92307692,4585.64102564,4680.0,4568.71794872,4682.56410256,4458.46153846,4457.94871795,4341.53846154,4324.1025641,1693.0,1663.0,11.941,0.0,0.0,0.0,0.0,mike,0
72.0,4695.38461538,4570.25641026,4649.23076923,4311.28205128,4524.1025641,4033.84615385,4584.1025641,4680.0,4566.15384615,4680.51282051,4456.41025641,4461.53846154,4340.51282051,4325.12820513,1694.0,1663.0,11.949,0.0,0.0,0.0,0.0,mike,0
73.0,4703.07692308,4575.38461538,4656.92307692,4318.46153846,4534.35897436,4034.87179487,4585.64102564,4689.23076923,4570.76923077,4682.05128205,4459.48717949,4466.15384615,4345.12820513,4331.79487179,1693.0,1662.0,11.957,0.0,0.0,0.0,0.0,mike,0
74.0,4697.43589744,4572.82051282,4649.74358974,4315.8974359,4532.30769231,4033.84615385,4578.46153846,4686.66666667,4568.71794872,4678.46153846,4453.84615385,4461.53846154,4338.97435897,4323.58974359,1693.0,1662.0,11.965,0.0,0.0,0.0,0.0,mike,0
75.0,4685.64102564,4567.17948718,4644.1025641,4307.17948718,4521.02564103,4027.69230769,4570.25641026,4678.97435897,4557.94871795,4676.41025641,4444.1025641,4456.92307692,4326.66666667,4312.82051282,1693.0,1662.0,11.973,0.0,0.0,0.0,0.0,mike,0
76.0,4686.66666667,4569.74358974,4649.23076923,4309.74358974,4519.48717949,4022.56410256,4572.30769231,4680.51282051,4555.38461538,4679.48717949,4444.61538462,4459.48717949,4325.12820513,4318.46153846,1693.0,1662.0,11.98,0.0,0.0,0.0,0.0,mike,0
77.0,4688.71794872,4568.20512821,4648.71794872,4311.28205128,4518.97435897,4018.46153846,4570.76923077,4676.41025641,4554.87179487,4673.33333333,4444.1025641,4458.46153846,4324.61538462,4320.0,1694.0,1661.0,11.988,0.0,0.0,0.0,0.0,mike,0
78.0,4684.61538462,4559.48717949,4643.07692308,4308.20512821,4521.02564103,4021.53846154,4570.25641026,4673.33333333,4555.38461538,4668.20512821,4445.12820513,4458.46153846,4324.1025641,4315.8974359,1694.0,1661.0,11.996,0.0,0.0,0.0,0.0,mike,0
79.0,4691.79487179,4567.17948718,4650.25641026,4312.82051282,4530.76923077,4035.38461538,4582.56410256,4686.66666667,4564.1025641,4677.43589744,4454.87179487,4468.71794872,4334.87179487,4326.66666667,1694.0,1661.0,12.004,0.0,0.0,0.0,0.0,mike,0
80.0,4703.07692308,4582.56410256,4662.05128205,4319.48717949,4532.30769231,4043.07692308,4593.33333333,4695.8974359,4571.79487179,4684.61538462,4461.53846154,4476.41025641,4343.07692308,4339.48717949,1694.0,1662.0,12.012,0.0,0.0,0.0,0.0,mike,0
81.0,4700.0,4580.0,4659.48717949,4317.94871795,4523.58974359,4031.79487179,4583.58974359,4688.20512821,4567.17948718,4678.46153846,4457.43589744,4474.35897436,4337.43589744,4333.84615385,1694.0,1661.0,12.02,0.0,0.0,0.0,0.0,mike,0
82.0,4691.28205128,4569.23076923,4649.74358974,4312.82051282,4523.07692308,4027.17948718,4575.8974359,4682.05128205,4562.56410256,4676.41025641,4453.33333333,4469.74358974,4334.35897436,4325.64102564,1693.0,1660.0,12.027,0.0,0.0,0.0,0.0,mike,0
83.0,4690.25641026,4569.23076923,4647.17948718,4311.28205128,4525.12820513,4035.8974359,4581.02564103,4684.1025641,4568.71794872,4680.0,4455.38461538,4466.66666667,4336.92307692,4326.66666667,1694.0,1659.0,12.035,0.0,0.0,0.0,0.0,mike,0
84.0,4688.20512821,4568.20512821,4646.15384615,4310.25641026,4521.53846154,4029.23076923,4578.97435897,4682.56410256,4567.17948718,4680.0,4457.43589744,4462.56410256,4336.92307692,4327.17948718,1694.0,1659.0,12.043,0.0,0.0,0.0,0.0,mike,0
85.0,4684.61538462,4564.61538462,4641.02564103,4309.23076923,4521.02564103,4017.94871795,4571.79487179,4678.46153846,4558.46153846,4678.46153846,4456.41025641,4461.53846154,4336.41025641,4325.64102564,1694.0,1660.0,12.051,0.0,0.0,0.0,0.0,mike,0
86.0,4684.1025641,4565.64102564,4636.41025641,4310.25641026,4516.41025641,4018.46153846,4566.66666667,4677.43589744,4559.48717949,4677.43589744,4450.25641026,4460.51282051,4334.87179487,4323.07692308,1694.0,1659.0,12.059,0.0,0.0,0.0,0.0,mike,0
87.0,4684.61538462,4564.61538462,4636.41025641,4309.74358974,4511.79487179,4024.1025641,4566.15384615,4679.48717949,4567.17948718,4677.94871795,4449.23076923,4456.92307692,4333.33333333,4322.05128205,1693.0,1659.0,12.066,0.0,0.0,0.0,0.0,mike,0
88.0,4688.71794872,4565.12820513,4642.56410256,4310.76923077,4518.46153846,4030.25641026,4576.92307692,4689.74358974,4570.25641026,4683.07692308,4455.38461538,4463.58974359,4336.41025641,4324.1025641,1694.0,1659.0,12.074,0.0,0.0,0.0,0.0,mike,0
89.0,4692.82051282,4567.69230769,4649.23076923,4313.33333333,4524.61538462,4037.94871795,4590.25641026,4700.0,4571.79487179,4689.23076923,4460.51282051,4474.35897436,4343.07692308,4328.20512821,1694.0,1660.0,12.082,0.0,0.0,0.0,0.0,mike,0
90.0,4686.66666667,4564.61538462,4643.58974359,4310.25641026,4524.61538462,4035.38461538,4584.61538462,4694.87179487,4572.82051282,4688.20512821,4460.51282051,4468.20512821,4343.58974359,4328.71794872,1694.0,1659.0,12.09,0.0,0.0,0.0,0.0,mike,0
91.0,4678.46153846,4561.02564103,4633.33333333,4305.12820513,4523.07692308,4030.25641026,4575.8974359,4685.12820513,4568.20512821,4684.61538462,4454.87179487,4456.41025641,4334.87179487,4324.61538462,1693.0,1660.0,12.098,0.0,0.0,0.0,0.0,mike,0
92.0,4685.12820513,4565.64102564,4637.94871795,4308.71794872,4524.1025641,4032.82051282,4584.61538462,4690.76923077,4569.74358974,4686.66666667,4454.35897436,4465.12820513,4334.35897436,4325.64102564,1694.0,1660.0,12.106,0.0,0.0,0.0,0.0,mike,0
93.0,4700.51282051,4573.33333333,4649.74358974,4314.35897436,4526.66666667,4031.79487179,4588.20512821,4698.46153846,4573.84615385,4687.69230769,4459.48717949,4477.94871795,4343.07692308,4333.33333333,1694.0,1661.0,12.113,0.0,0.0,0.0,0.0,mike,0
94.0,4703.58974359,4571.28205128,4650.25641026,4312.30769231,4522.56410256,4028.20512821,4580.51282051,4692.30769231,4571.79487179,4685.64102564,4460.0,4476.92307692,4341.53846154,4334.87179487,1694.0,1661.0,12.121,0.0,0.0,0.0,0.0,mike,0
95.0,4694.35897436,4560.51282051,4643.07692308,4309.74358974,4511.79487179,4025.64102564,4574.87179487,4684.61538462,4566.66666667,4682.56410256,4454.87179487,4469.23076923,4332.82051282,4329.23076923,1695.0,1662.0,12.129,0.0,0.0,0.0,0.0,mike,0
96.0,4689.74358974,4555.38461538,4640.51282051,4309.74358974,4510.76923077,4023.07692308,4570.76923077,4682.05128205,4561.53846154,4677.94871795,4450.25641026,4463.58974359,4329.23076923,4327.69230769,1694.0,1661.0,12.137,0.0,0.0,0.0,0.0,mike,0
97.0,4685.12820513,4557.94871795,4638.46153846,4303.58974359,4515.38461538,4020.0,4567.69230769,4672.82051282,4552.82051282,4669.23076923,4443.07692308,4455.8974359,4323.58974359,4323.07692308,1695.0,1662.0,12.145,0.0,0.0,0.0,0.0,mike,0
98.0,4672.82051282,4551.28205128,4629.23076923,4292.82051282,4503.58974359,4016.41025641,4566.15384615,4658.97435897,4541.02564103,4656.41025641,4427.69230769,4443.07692308,4307.69230769,4302.56410256,1694.0,1662.0,12.153,0.0,0.0,0.0,0.0,mike,0
99.0,4671.79487179,4544.1025641,4627.69230769,4294.35897436,4500.51282051,4020.0,4566.66666667,4660.0,4543.58974359,4656.41025641,4424.1025641,4438.97435897,4303.58974359,4294.87179487,1694.0,1663.0,12.16,0.0,0.0,0.0,0.0,mike,0
100.0,4685.64102564,4552.82051282,4635.38461538,4304.61538462,4522.56410256,4028.20512821,4569.74358974,4671.79487179,4556.41025641,4670.76923077,4438.97435897,4452.82051282,4319.48717949,4312.82051282,1695.0,1662.0,12.169,0.0,0.0,0.0,0.0,mike,0
101.0,4686.15384615,4556.41025641,4635.38461538,4302.05128205,4523.07692308,4027.17948718,4571.28205128,4672.30769231,4558.97435897,4677.43589744,4447.69230769,4460.51282051,4329.23076923,4321.02564103,1694.0,1663.0,12.177,0.0,0.0,0.0,0.0,mike,0
102.0,4678.97435897,4553.84615385,4630.76923077,4299.48717949,4506.66666667,4020.0,4569.74358974,4669.23076923,4555.38461538,4671.28205128,4441.53846154,4455.38461538,4325.64102564,4315.8974359,1696.0,1664.0,12.184,0.0,0.0,0.0,0.0,mike,0
103.0,4686.15384615,4557.43589744,4633.33333333,4307.69230769,4514.35897436,4026.15384615,4571.28205128,4677.94871795,4556.41025641,4671.28205128,4442.56410256,4456.92307692,4325.64102564,4317.94871795,1695.0,1662.0,12.192,0.0,0.0,0.0,0.0,mike,0
104.0,4689.23076923,4555.8974359,4632.82051282,4310.25641026,4524.61538462,4029.23076923,4569.74358974,4681.53846154,4557.43589744,4672.82051282,4447.69230769,4458.97435897,4327.69230769,4320.51282051,1695.0,1664.0,12.2,0.0,0.0,0.0,0.0,mike,0
105.0,4683.58974359,4555.38461538,4630.76923077,4305.64102564,4517.43589744,4024.1025641,4570.25641026,4678.46153846,4560.0,4673.33333333,4443.58974359,4454.35897436,4329.23076923,4319.48717949,1695.0,1662.0,12.208,0.0,0.0,0.0,0.0,mike,0
106.0,4693.33333333,4567.17948718,4640.0,4310.76923077,4522.05128205,4028.71794872,4583.07692308,4688.71794872,4571.79487179,4685.12820513,4448.20512821,4463.07692308,4336.41025641,4325.64102564,1695.0,1661.0,12.216,0.0,0.0,0.0,0.0,mike,0
107.0,4704.61538462,4572.82051282,4649.74358974,4321.02564103,4527.17948718,4033.33333333,4589.74358974,4698.46153846,4574.35897436,4691.79487179,4460.51282051,4473.33333333,4340.0,4329.74358974,1695.0,1661.0,12.223,0.0,0.0,0.0,0.0,mike,0
108.0,4697.94871795,4568.71794872,4646.66666667,4318.46153846,4515.38461538,4028.71794872,4580.0,4689.23076923,4571.28205128,4683.07692308,4459.48717949,4465.64102564,4334.87179487,4327.69230769,1694.0,1662.0,12.231,0.0,0.0,0.0,0.0,mike,0
109.0,4690.25641026,4567.69230769,4637.43589744,4311.79487179,4515.8974359,4026.15384615,4571.28205128,4679.48717949,4568.71794872,4677.43589744,4448.71794872,4458.97435897,4333.84615385,4326.15384615,1694.0,1661.0,12.239,0.0,0.0,0.0,0.0,mike,0
110.0,4692.30769231,4567.17948718,4630.76923077,4308.20512821,4525.12820513,4023.58974359,4564.1025641,4677.43589744,4557.94871795,4676.92307692,4446.15384615,4460.51282051,4333.84615385,4327.69230769,1693.0,1662.0,12.246,0.0,0.0,0.0,0.0,mike,0
111.0,4699.48717949,4568.20512821,4640.51282051,4311.28205128,4522.05128205,4017.43589744,4557.94871795,4674.87179487,4555.38461538,4676.41025641,4453.84615385,4465.64102564,4335.8974359,4331.28205128,1695.0,1662.0,12.254,0.0,0.0,0.0,0.0,mike,0
112.0,4709.23076923,4572.82051282,4656.92307692,4318.46153846,4522.05128205,4018.97435897,4567.17948718,4676.92307692,4568.20512821,4678.97435897,4460.51282051,4473.33333333,4342.56410256,4335.8974359,1693.0,1661.0,12.262,0.0,0.0,0.0,0.0,mike,0
113.0,4711.79487179,4572.82051282,4654.87179487,4321.02564103,4525.64102564,4025.12820513,4574.87179487,4678.46153846,4565.12820513,4678.97435897,4457.43589744,4474.87179487,4339.48717949,4335.8974359,1693.0,1662.0,12.27,0.0,0.0,0.0,0.0,mike,0
114.0,4704.61538462,4570.25641026,4645.12820513,4318.97435897,4514.35897436,4027.17948718,4571.28205128,4676.41025641,4552.82051282,4674.35897436,4454.35897436,4470.76923077,4331.79487179,4332.82051282,1692.0,1663.0,12.278,0.0,0.0,0.0,0.0,mike,0
115.0,4703.07692308,4572.82051282,4649.74358974,4318.97435897,4509.74358974,4028.20512821,4575.8974359,4679.48717949,4560.0,4676.41025641,4456.41025641,4471.28205128,4333.84615385,4334.35897436,1692.0,1664.0,12.286,0.0,0.0,0.0,0.0,mike,0
116.0,4705.12820513,4573.84615385,4651.28205128,4318.97435897,4522.56410256,4028.71794872,4580.0,4682.05128205,4569.23076923,4679.48717949,4451.28205128,4467.17948718,4336.41025641,4334.35897436,1692.0,1664.0,12.294,0.0,0.0,0.0,0.0,mike,0
117.0,4702.56410256,4567.69230769,4643.07692308,4315.38461538,4526.66666667,4028.20512821,4570.76923077,4676.41025641,4562.56410256,4676.41025641,4446.66666667,4458.46153846,4332.30769231,4326.15384615,1691.0,1664.0,12.301,0.0,0.0,0.0,0.0,mike,0
118.0,4702.56410256,4565.64102564,4645.64102564,4317.43589744,4521.53846154,4028.71794872,4572.30769231,4682.05128205,4566.15384615,4679.48717949,4455.38461538,4464.61538462,4334.35897436,4325.12820513,1692.0,1664.0,12.309,0.0,0.0,0.0,0.0,mike,0
119.0,4702.56410256,4569.74358974,4649.23076923,4320.0,4522.05128205,4029.74358974,4582.56410256,4697.43589744,4578.46153846,4688.71794872,4462.56410256,4475.38461538,4341.02564103,4334.35897436,1692.0,1665.0,12.317,0.0,0.0,0.0,0.0,mike,0
120.0,4700.51282051,4571.28205128,4644.61538462,4316.92307692,4523.58974359,4030.25641026,4584.1025641,4700.0,4576.92307692,4689.23076923,4458.97435897,4474.35897436,4342.56410256,4335.38461538,1693.0,1665.0,12.325,0.0,0.0,0.0,0.0,mike,0
121.0,4702.05128205,4572.82051282,4645.12820513,4317.43589744,4520.51282051,4029.23076923,4580.51282051,4695.38461538,4572.30769231,4685.64102564,4460.0,4467.69230769,4342.05128205,4329.74358974,1692.0,1665.0,12.332,0.0,0.0,0.0,0.0,mike,0
122.0,4701.53846154,4573.33333333,4643.58974359,4319.48717949,4521.02564103,4026.15384615,4575.8974359,4688.71794872,4571.28205128,4679.48717949,4460.0,4462.05128205,4337.43589744,4328.20512821,1694.0,1664.0,12.341,0.0,0.0,0.0,0.0,mike,0
123.0,4693.84615385,4564.1025641,4634.35897436,4314.35897436,4523.07692308,4021.02564103,4570.25641026,4678.46153846,4562.56410256,4668.71794872,4449.23076923,4458.97435897,4329.23076923,4322.05128205,1692.0,1663.0,12.349,0.0,0.0,0.0,0.0,mike,0
124.0,4687.17948718,4559.48717949,4629.23076923,4309.23076923,4518.46153846,4018.46153846,4567.69230769,4672.30769231,4555.8974359,4664.61538462,4445.12820513,4456.92307692,4328.20512821,4316.92307692,1695.0,1664.0,12.358,0.0,0.0,0.0,0.0,mike,0
125.0,4685.64102564,4565.12820513,4633.33333333,4312.30769231,4509.23076923,4024.1025641,4569.23076923,4675.38461538,4562.05128205,4670.25641026,4454.87179487,4456.41025641,4335.8974359,4324.1025641,1693.0,1662.0,12.364,0.0,0.0,0.0,0.0,mike,0
126.0,4686.66666667,4561.53846154,4634.87179487,4314.35897436,4510.76923077,4029.23076923,4572.30769231,4680.0,4570.25641026,4673.33333333,4456.41025641,4458.46153846,4336.92307692,4327.17948718,1693.0,1662.0,12.372,0.0,0.0,0.0,0.0,mike,0
127.0,4689.74358974,4553.84615385,4634.35897436,4311.28205128,4520.51282051,4027.69230769,4574.35897436,4681.53846154,4567.17948718,4669.74358974,4445.12820513,4458.46153846,4328.20512821,4316.92307692,1695.0,1661.0,12.379,0.0,0.0,0.0,0.0,mike,0
128.0,4688.20512821,4554.87179487,4633.33333333,4309.23076923,4521.53846154,4026.66666667,4571.79487179,4679.48717949,4557.43589744,4663.58974359,4438.97435897,4453.84615385,4319.48717949,4308.20512821,1694.0,1661.0,12.387,0.0,0.0,0.0,0.0,mike,0
0.0,4686.15384615,4555.38461538,4633.33333333,4309.23076923,4517.94871795,4028.20512821,4571.28205128,4678.46153846,4556.92307692,4661.02564103,4441.53846154,4454.35897436,4318.46153846,4309.74358974,1694.0,1661.0,12.395,0.0,0.0,0.0,0.0,mike,0
1.0,4690.25641026,4557.43589744,4633.84615385,4308.20512821,4519.48717949,4022.56410256,4572.30769231,4682.56410256,4567.17948718,4667.17948718,4444.61538462,4459.48717949,4325.12820513,4312.30769231,1693.0,1661.0,12.403,0.0,0.0,0.0,0.0,mike,0
2.0,4688.71794872,4566.66666667,4632.82051282,4308.71794872,4520.0,4017.43589744,4567.69230769,4681.53846154,4569.23076923,4670.25641026,4443.58974359,4454.87179487,4326.66666667,4310.76923077,1695.0,1661.0,12.411,0.0,0.0,0.0,0.0,mike,0
3.0,4688.71794872,4570.25641026,4635.38461538,4311.28205128,4518.97435897,4024.1025641,4567.17948718,4680.51282051,4567.17948718,4668.20512821,4444.1025641,4450.25641026,4326.66666667,4311.28205128,1693.0,1660.0,12.419,0.0,0.0,0.0,0.0,mike,0
4.0,4696.41025641,4566.15384615,4638.46153846,4312.82051282,4519.48717949,4030.76923077,4577.43589744,4685.64102564,4571.28205128,4674.87179487,4452.30769231,4456.41025641,4335.38461538,4318.46153846,1694.0,1660.0,12.427,0.0,0.0,0.0,0.0,mike,0
5.0,4698.97435897,4566.66666667,4639.48717949,4313.33333333,4518.97435897,4029.74358974,4583.58974359,4689.74358974,4571.28205128,4682.56410256,4461.02564103,4464.61538462,4342.56410256,4325.12820513,1693.0,1661.0,12.434,0.0,0.0,0.0,0.0,mike,0
6.0,4698.97435897,4569.23076923,4644.1025641,4317.43589744,4523.58974359,4029.23076923,4583.07692308,4695.8974359,4575.38461538,4684.61538462,4461.02564103,4469.23076923,4346.15384615,4326.15384615,1694.0,1663.0,12.442,0.0,0.0,0.0,0.0,mike,0
7.0,4705.64102564,4570.25641026,4650.25641026,4323.07692308,4526.66666667,4030.25641026,4584.61538462,4704.1025641,4584.61538462,4688.20512821,4461.02564103,4474.35897436,4349.23076923,4328.20512821,1695.0,1661.0,12.45,0.0,0.0,0.0,0.0,mike,0
8.0,4707.17948718,4571.79487179,4649.23076923,4322.56410256,4523.58974359,4027.69230769,4580.51282051,4698.97435897,4578.46153846,4688.20512821,4462.56410256,4474.87179487,4346.66666667,4329.74358974,1695.0,1662.0,12.458,0.0,0.0,0.0,0.0,mike,0
9.0,4698.97435897,4571.28205128,4642.56410256,4316.92307692,4521.53846154,4027.17948718,4570.76923077,4689.23076923,4568.71794872,4681.53846154,4461.02564103,4467.17948718,4342.56410256,4327.69230769,1696.0,1661.0,12.465,0.0,0.0,0.0,0.0,mike,0
10.0,4693.84615385,4568.71794872,4637.94871795,4313.33333333,4522.05128205,4030.25641026,4569.74358974,4687.17948718,4570.76923077,4677.94871795,4456.92307692,4461.02564103,4341.02564103,4326.66666667,1697.0,1662.0,12.473,0.0,0.0,0.0,0.0,mike,0
11.0,4693.84615385,4568.20512821,4638.46153846,4312.30769231,4520.0,4028.71794872,4573.33333333,4686.15384615,4571.79487179,4678.46153846,4454.87179487,4458.46153846,4336.41025641,4326.66666667,1699.0,1661.0,12.481,0.0,0.0,0.0,0.0,mike,0
12.0,4696.41025641,4568.20512821,4639.48717949,4311.79487179,4516.92307692,4026.66666667,4573.33333333,4686.15384615,4569.74358974,4678.97435897,4455.38461538,4459.48717949,4335.38461538,4325.12820513,1699.0,1660.0,12.489,0.0,0.0,0.0,0.0,mike,0
13.0,4696.41025641,4567.17948718,4636.92307692,4310.25641026,4522.56410256,4029.74358974,4572.30769231,4687.17948718,4570.25641026,4678.46153846,4455.8974359,4461.53846154,4341.02564103,4324.61538462,1699.0,1661.0,12.497,0.0,0.0,0.0,0.0,mike,0
14.0,4691.79487179,4566.66666667,4636.92307692,4309.74358974,4524.61538462,4029.74358974,4573.33333333,4683.07692308,4569.74358974,4675.38461538,4455.8974359,4460.0,4338.97435897,4324.1025641,1700.0,1660.0,12.505,0.0,0.0,0.0,0.0,mike,0
15.0,4694.35897436,4569.74358974,4641.53846154,4312.30769231,4513.33333333,4022.56410256,4573.33333333,4677.94871795,4567.69230769,4674.87179487,4457.94871795,4463.58974359,4337.94871795,4325.12820513,1700.0,1661.0,12.512,0.0,0.0,0.0,0.0,mike,0
16.0,4702.56410256,4573.33333333,4642.05128205,4312.82051282,4513.84615385,4024.61538462,4573.33333333,4682.56410256,4568.20512821,4680.51282051,4460.0,4471.28205128,4345.12820513,4332.30769231,1700.0,1661.0,12.52,0.0,0.0,0.0,0.0,mike,0
17.0,4706.15384615,4572.30769231,4644.61538462,4312.30769231,4526.15384615,4030.25641026,4573.33333333,4690.76923077,4570.76923077,4683.07692308,4460.51282051,4472.82051282,4346.66666667,4336.92307692,1701.0,1661.0,12.528,0.0,0.0,0.0,0.0,mike,0
18.0,4704.61538462,4568.71794872,4647.69230769,4313.33333333,4524.61538462,4024.61538462,4571.28205128,4691.28205128,4572.30769231,4681.53846154,4461.53846154,4471.79487179,4343.58974359,4336.92307692,1700.0,1661.0,12.536,0.0,0.0,0.0,0.0,mike,0
19.0,4703.58974359,4569.23076923,4643.07692308,4312.82051282,4517.43589744,4017.94871795,4570.25641026,4689.23076923,4571.79487179,4681.53846154,4461.53846154,4471.28205128,4344.61538462,4335.38461538,1701.0,1661.0,12.544,0.0,0.0,0.0,0.0,mike,0
20.0,4702.56410256,4569.74358974,4638.46153846,4308.71794872,4520.51282051,4020.51282051,4567.17948718,4683.07692308,4568.20512821,4678.97435897,4458.46153846,4465.64102564,4342.56410256,4330.25641026,1700.0,1661.0,12.552,0.0,0.0,0.0,0.0,mike,0
21.0,4701.02564103,4568.20512821,4639.48717949,4307.17948718,4523.58974359,4020.51282051,4563.58974359,4676.92307692,4563.58974359,4675.8974359,4455.8974359,4458.97435897,4338.46153846,4325.12820513,1701.0,1661.0,12.56,0.0,0.0,0.0,0.0,mike,0
22.0,4698.46153846,4569.74358974,4637.94871795,4311.28205128,4521.02564103,4019.48717949,4567.69230769,4681.53846154,4566.66666667,4677.43589744,4458.46153846,4462.56410256,4343.07692308,4329.23076923,1700.0,1661.0,12.567,0.0,0.0,0.0,0.0,mike,0
23.0,4688.20512821,4565.64102564,4632.30769231,4310.76923077,4516.92307692,4022.05128205,4572.30769231,4685.64102564,4568.20512821,4676.41025641,4454.87179487,4460.51282051,4340.0,4326.15384615,1701.0,1662.0,12.575,0.0,0.0,0.0,0.0,mike,0
24.0,4680.0,4557.43589744,4628.20512821,4304.1025641,4514.35897436,4021.02564103,4564.1025641,4677.94871795,4558.97435897,4670.76923077,4444.1025641,4449.23076923,4326.66666667,4312.30769231,1699.0,1662.0,12.583,0.0,0.0,0.0,0.0,mike,0
25.0,4684.1025641,4556.41025641,4627.69230769,4303.58974359,4519.48717949,4020.0,4560.51282051,4673.33333333,4555.8974359,4669.74358974,4441.53846154,4443.07692308,4326.15384615,4307.69230769,1700.0,1663.0,12.591,0.0,0.0,0.0,0.0,mike,0
26.0,4687.17948718,4557.94871795,4627.69230769,4308.20512821,4520.0,4021.02564103,4567.17948718,4679.48717949,4564.61538462,4672.82051282,4445.64102564,4443.58974359,4334.87179487,4311.28205128,1699.0,1661.0,12.598,0.0,0.0,0.0,0.0,mike,0
27.0,4684.1025641,4561.53846154,4632.30769231,4307.69230769,4514.87179487,4023.07692308,4571.28205128,4684.1025641,4570.76923077,4675.38461538,4449.23076923,4450.25641026,4337.94871795,4315.38461538,1698.0,1663.0,12.606,0.0,0.0,0.0,0.0,mike,0
28.0,4689.23076923,4569.74358974,4642.05128205,4310.76923077,4519.48717949,4030.25641026,4577.43589744,4690.76923077,4572.82051282,4678.97435897,4456.92307692,4457.94871795,4340.51282051,4319.48717949,1698.0,1662.0,12.614,0.0,0.0,0.0,0.0,mike,0
29.0,4696.41025641,4571.28205128,4645.64102564,4316.41025641,4527.69230769,4039.48717949,4588.71794872,4696.92307692,4574.35897436,4680.51282051,4459.48717949,4459.48717949,4341.02564103,4320.0,1696.0,1663.0,12.622,0.0,0.0,0.0,0.0,mike,0
30.0,4690.25641026,4564.61538462,4636.92307692,4313.84615385,4523.58974359,4036.92307692,4587.17948718,4691.79487179,4571.28205128,4678.46153846,4451.79487179,4454.87179487,4334.35897436,4316.92307692,1696.0,1663.0,12.63,0.0,0.0,0.0,0.0,mike,0
31.0,4685.64102564,4564.1025641,4634.87179487,4310.25641026,4519.48717949,4026.15384615,4575.38461538,4686.15384615,4568.20512821,4675.38461538,4449.74358974,4454.87179487,4334.35897436,4317.94871795,1696.0,1663.0,12.638,0.0,0.0,0.0,0.0,mike,0
32.0,4689.23076923,4566.66666667,4638.97435897,4312.30769231,4523.07692308,4025.64102564,4571.28205128,4688.71794872,4568.71794872,4675.8974359,4451.28205128,4458.97435897,4338.97435897,4318.97435897,1695.0,1662.0,12.645,0.0,0.0,0.0,0.0,mike,0
33.0,4687.69230769,4563.58974359,4636.41025641,4310.25641026,4522.05128205,4029.23076923,4572.30769231,4687.69230769,4566.15384615,4675.8974359,4447.69230769,4455.38461538,4333.84615385,4316.41025641,1695.0,1663.0,12.654,0.0,0.0,0.0,0.0,mike,0
34.0,4692.30769231,4565.64102564,4641.02564103,4309.23076923,4520.0,4028.71794872,4580.0,4688.20512821,4568.71794872,4676.92307692,4452.30769231,4456.92307692,4337.94871795,4321.53846154,1696.0,1663.0,12.661,0.0,0.0,0.0,0.0,mike,0
35.0,4706.66666667,4571.28205128,4651.79487179,4316.92307692,4524.1025641,4031.28205128,4586.15384615,4695.8974359,4576.41025641,4684.61538462,4464.1025641,4469.23076923,4352.82051282,4334.35897436,1695.0,1662.0,12.669,0.0,0.0,0.0,0.0,mike,0
36.0,4708.20512821,4571.28205128,4650.76923077,4318.46153846,4523.07692308,4029.23076923,4575.8974359,4695.8974359,4574.87179487,4683.07692308,4464.1025641,4475.38461538,4351.79487179,4337.43589744,1695.0,1663.0,12.678,0.0,0.0,0.0,0.0,mike,0
37.0,4699.48717949,4568.20512821,4646.15384615,4312.82051282,4515.8974359,4024.1025641,4569.74358974,4689.23076923,4568.71794872,4675.38461538,4459.48717949,4470.25641026,4342.56410256,4334.35897436,1694.0,1663.0,12.687,0.0,0.0,0.0,0.0,mike,0
38.0,4703.58974359,4568.71794872,4652.82051282,4314.87179487,4517.43589744,4029.74358974,4580.0,4694.35897436,4571.28205128,4680.0,4467.17948718,4470.25641026,4346.15384615,4335.8974359,1693.0,1663.0,12.692,0.0,0.0,0.0,0.0,mike,0
39.0,4717.94871795,4576.92307692,4659.48717949,4322.56410256,4526.15384615,4039.48717949,4588.71794872,4702.56410256,4582.56410256,4690.25641026,4475.8974359,4482.56410256,4356.92307692,4344.1025641,1695.0,1662.0,12.7,0.0,0.0,0.0,0.0,mike,0
40.0,4721.53846154,4581.53846154,4660.0,4320.51282051,4528.20512821,4037.94871795,4583.58974359,4700.0,4588.71794872,4689.74358974,4477.43589744,4489.74358974,4361.02564103,4351.28205128,1693.0,1662.0,12.708,0.0,0.0,0.0,0.0,mike,0
41.0,4713.33333333,4572.82051282,4652.82051282,4310.76923077,4525.12820513,4034.35897436,4573.84615385,4691.28205128,4577.94871795,4683.07692308,4468.71794872,4477.43589744,4353.33333333,4344.1025641,1694.0,1663.0,12.716,0.0,0.0,0.0,0.0,mike,0
42.0,4710.25641026,4569.74358974,4650.76923077,4311.28205128,4523.07692308,4034.87179487,4574.87179487,4690.25641026,4571.28205128,4682.56410256,4462.56410256,4472.82051282,4350.25641026,4336.41025641,1693.0,1662.0,12.724,0.0,0.0,0.0,0.0,mike,0
43.0,4719.48717949,4582.05128205,4661.53846154,4322.05128205,4528.20512821,4037.43589744,4587.17948718,4701.53846154,4585.12820513,4688.20512821,4469.74358974,4489.23076923,4358.46153846,4346.66666667,1693.0,1662.0,12.731,0.0,0.0,0.0,0.0,mike,0
44.0,4722.56410256,4582.05128205,4662.05128205,4322.56410256,4529.23076923,4034.35897436,4586.15384615,4703.58974359,4588.71794872,4688.20512821,4470.76923077,4491.28205128,4356.92307692,4351.28205128,1692.0,1662.0,12.739,0.0,0.0,0.0,0.0,mike,0
45.0,4707.69230769,4565.64102564,4646.15384615,4309.23076923,4511.28205128,4019.48717949,4565.12820513,4688.71794872,4569.74358974,4677.43589744,4457.94871795,4468.20512821,4341.02564103,4334.35897436,1693.0,1662.0,12.747,0.0,0.0,0.0,0.0,mike,0
46.0,4695.8974359,4563.58974359,4642.56410256,4302.56410256,4503.07692308,4016.41025641,4561.53846154,4683.58974359,4564.61538462,4673.84615385,4454.35897436,4466.66666667,4338.97435897,4329.23076923,1693.0,1662.0,12.755,0.0,0.0,0.0,0.0,mike,0
47.0,4702.05128205,4572.30769231,4651.79487179,4306.66666667,4522.05128205,4033.33333333,4580.0,4692.82051282,4575.38461538,4681.02564103,4463.58974359,4481.53846154,4346.66666667,4337.94871795,1692.0,1662.0,12.763,0.0,0.0,0.0,0.0,mike,0
48.0,4703.07692308,4561.53846154,4646.66666667,4300.51282051,4526.15384615,4037.94871795,4580.51282051,4690.76923077,4573.33333333,4678.97435897,4460.51282051,4472.82051282,4341.02564103,4329.23076923,1693.0,1661.0,12.771,0.0,0.0,0.0,0.0,mike,0
49.0,4692.82051282,4550.76923077,4634.87179487,4291.79487179,4512.30769231,4027.17948718,4568.20512821,4686.66666667,4568.71794872,4674.35897436,4454.35897436,4460.51282051,4337.94871795,4321.02564103,1691.0,1662.0,12.779,0.0,0.0,0.0,0.0,mike,0
50.0,4693.84615385,4563.07692308,4638.97435897,4300.0,4516.41025641,4026.15384615,4574.87179487,4698.97435897,4580.51282051,4682.05128205,4465.64102564,4470.25641026,4349.74358974,4335.38461538,1693.0,1661.0,12.786,0.0,0.0,0.0,0.0,mike,0
51.0,4711.28205128,4574.87179487,4653.33333333,4312.30769231,4523.07692308,4035.38461538,4590.25641026,4708.20512821,4589.23076923,4688.71794872,4474.35897436,4481.02564103,4355.38461538,4350.76923077,1692.0,1661.0,12.795,0.0,0.0,0.0,0.0,mike,0
52.0,4722.56410256,4570.76923077,4660.0,4311.79487179,4515.8974359,4036.92307692,4584.1025641,4704.61538462,4580.0,4683.58974359,4467.17948718,4478.46153846,4351.28205128,4348.71794872,1693.0,1662.0,12.802,0.0,0.0,0.0,0.0,mike,0
53.0,4714.87179487,4568.71794872,4653.33333333,4308.20512821,4515.38461538,4028.20512821,4570.76923077,4695.8974359,4569.74358974,4677.94871795,4459.48717949,4471.79487179,4346.66666667,4336.92307692,1692.0,1661.0,12.811,0.0,0.0,0.0,0.0,mike,0
54.0,4703.58974359,4571.28205128,4645.12820513,4310.76923077,4522.56410256,4026.66666667,4571.79487179,4688.71794872,4570.25641026,4680.0,4460.0,4469.23076923,4343.07692308,4330.25641026,1692.0,1662.0,12.818,0.0,0.0,0.0,0.0,mike,0
55.0,4704.1025641,4571.28205128,4647.17948718,4310.76923077,4524.1025641,4034.35897436,4574.35897436,4688.71794872,4573.33333333,4680.0,4459.48717949,4466.66666667,4341.02564103,4332.30769231,1693.0,1662.0,12.828,0.0,0.0,0.0,0.0,mike,0
56.0,4710.25641026,4571.28205128,4648.71794872,4308.20512821,4524.1025641,4036.92307692,4570.76923077,4689.74358974,4571.79487179,4677.43589744,4457.43589744,4467.17948718,4340.0,4337.43589744,1692.0,1662.0,12.833,0.0,0.0,0.0,0.0,mike,0
57.0,4712.30769231,4569.23076923,4646.66666667,4308.20512821,4520.0,4032.30769231,4571.28205128,4686.15384615,4569.74358974,4679.48717949,4455.8974359,4470.25641026,4338.97435897,4338.46153846,1693.0,1662.0,12.841,0.0,0.0,0.0,0.0,mike,0
58.0,4718.97435897,4573.33333333,4654.87179487,4312.30769231,4525.64102564,4034.35897436,4580.51282051,4694.35897436,4577.94871795,4690.76923077,4465.64102564,4477.43589744,4347.69230769,4342.05128205,1693.0,1663.0,12.849,0.0,0.0,0.0,0.0,mike,0
59.0,4724.1025641,4586.15384615,4662.05128205,4313.33333333,4536.41025641,4039.48717949,4586.66666667,4705.12820513,4587.69230769,4698.97435897,4475.38461538,4481.53846154,4354.87179487,4346.66666667,1693.0,1662.0,12.857,0.0,0.0,0.0,0.0,mike,0
60.0,4711.79487179,4584.1025641,4650.76923077,4306.15384615,4524.61538462,4033.84615385,4581.53846154,4698.46153846,4584.1025641,4687.69230769,4462.05128205,4475.38461538,4346.15384615,4336.41025641,1692.0,1662.0,12.864,0.0,0.0,0.0,0.0,mike,0
61.0,4708.20512821,4573.33333333,4648.71794872,4307.69230769,4518.97435897,4033.84615385,4584.1025641,4697.94871795,4581.02564103,4686.15384615,4459.48717949,4474.87179487,4345.64102564,4334.35897436,1694.0,1662.0,12.872,0.0,0.0,0.0,0.0,mike,0
62.0,4717.94871795,4571.79487179,4657.43589744,4315.38461538,4535.38461538,4044.1025641,4590.25641026,4706.66666667,4589.74358974,4702.56410256,4476.92307692,4483.07692308,4355.38461538,4345.64102564,1693.0,1661.0,12.88,0.0,0.0,0.0,0.0,mike,0
63.0,4710.25641026,4570.76923077,4646.66666667,4304.1025641,4532.30769231,4038.97435897,4577.94871795,4694.87179487,4586.15384615,4697.43589744,4468.20512821,4476.41025641,4349.74358974,4338.46153846,1693.0,1663.0,12.888,0.0,0.0,0.0,0.0,mike,0
64.0,4697.94871795,4566.66666667,4637.94871795,4297.94871795,4515.8974359,4026.66666667,4570.76923077,4683.07692308,4571.79487179,4678.97435897,4451.79487179,4460.51282051,4337.94871795,4326.15384615,1694.0,1662.0,12.896,0.0,0.0,0.0,0.0,mike,0
65.0,4702.05128205,4569.74358974,4647.17948718,4308.71794872,4524.61538462,4033.84615385,4585.12820513,4690.76923077,4569.74358974,4678.97435897,4455.8974359,4460.0,4335.8974359,4328.71794872,1693.0,1662.0,12.904,0.0,0.0,0.0,0.0,mike,0
66.0,4704.61538462,4571.79487179,4642.56410256,4305.64102564,4530.76923077,4040.0,4584.61538462,4688.20512821,4570.25641026,4675.8974359,4450.76923077,4464.1025641,4329.74358974,4327.69230769,1694.0,1663.0,12.911,0.0,0.0,0.0,0.0,mike,0
67.0,4698.46153846,4567.69230769,4632.82051282,4295.8974359,4516.41025641,4027.69230769,4568.20512821,4678.97435897,4566.66666667,4660.51282051,4438.97435897,4458.46153846,4320.0,4315.8974359,1694.0,1662.0,12.925,0.0,0.0,0.0,0.0,mike,0
68.0,4701.02564103,4567.69230769,4638.97435897,4302.56410256,4518.46153846,4027.17948718,4571.28205128,4686.15384615,4567.69230769,4663.07692308,4441.53846154,4457.43589744,4322.05128205,4316.41025641,1694.0,1661.0,12.929,0.0,0.0,0.0,0.0,mike,0
69.0,4703.58974359,4566.15384615,4643.07692308,4305.12820513,4524.61538462,4034.35897436,4578.46153846,4689.23076923,4569.74358974,4674.87179487,4445.12820513,4462.05128205,4327.17948718,4323.58974359,1694.0,1661.0,12.935,0.0,0.0,0.0,0.0,mike,0
70.0,4708.20512821,4568.71794872,4643.58974359,4305.64102564,4524.1025641,4034.87179487,4576.41025641,4689.74358974,4575.38461538,4681.02564103,4452.30769231,4466.66666667,4336.41025641,4331.28205128,1694.0,1661.0,12.943,0.0,0.0,0.0,0.0,mike,0
71.0,4720.0,4581.02564103,4654.35897436,4316.92307692,4536.92307692,4041.02564103,4588.20512821,4704.61538462,4588.71794872,4690.76923077,4466.15384615,4478.97435897,4350.25641026,4341.53846154,1695.0,1662.0,12.95,0.0,0.0,0.0,0.0,mike,0
72.0,4715.8974359,4579.48717949,4652.82051282,4314.35897436,4535.8974359,4043.07692308,4590.25641026,4703.58974359,4585.64102564,4687.17948718,4465.12820513,4478.46153846,4347.17948718,4336.41025641,1695.0,1661.0,12.958,0.0,0.0,0.0,0.0,mike,0
73.0,4704.61538462,4567.17948718,4640.51282051,4301.53846154,4509.23076923,4029.23076923,4570.25641026,4683.58974359,4566.66666667,4673.33333333,4454.87179487,4464.1025641,4333.33333333,4327.17948718,1695.0,1661.0,12.966,0.0,0.0,0.0,0.0,mike,0
74.0,4711.28205128,4573.33333333,4646.66666667,4310.76923077,4511.79487179,4025.64102564,4571.28205128,4687.69230769,4569.74358974,4677.94871795,4457.94871795,4467.17948718,4341.02564103,4335.38461538,1696.0,1660.0,12.974,0.0,0.0,0.0,0.0,mike,0
75.0,4723.58974359,4589.23076923,4654.87179487,4323.58974359,4540.51282051,4035.8974359,4587.17948718,4702.56410256,4585.64102564,4690.25641026,4466.15384615,4481.02564103,4355.8974359,4346.15384615,1696.0,1659.0,12.982,0.0,0.0,0.0,0.0,mike,0
76.0,4718.46153846,4586.15384615,4648.20512821,4316.92307692,4536.41025641,4036.92307692,4578.97435897,4696.41025641,4585.64102564,4687.17948718,4463.58974359,4478.97435897,4349.74358974,4343.58974359,1696.0,1659.0,12.99,0.0,0.0,0.0,0.0,mike,0
77.0,4710.76923077,4573.84615385,4644.1025641,4307.69230769,4517.94871795,4030.76923077,4567.17948718,4691.79487179,4580.51282051,4680.51282051,4458.97435897,4472.82051282,4340.0,4339.48717949,1696.0,1661.0,12.997,0.0,0.0,0.0,0.0,mike,0
78.0,4711.28205128,4571.28205128,4645.64102564,4310.76923077,4522.05128205,4029.23076923,4574.87179487,4696.92307692,4578.46153846,4682.56410256,4458.46153846,4474.87179487,4344.1025641,4340.0,1697.0,1660.0,13.005,0.0,0.0,0.0,0.0,mike,0
79.0,4705.12820513,4570.25641026,4638.46153846,4309.23076923,4528.20512821,4028.20512821,4573.33333333,4690.76923077,4571.28205128,4680.51282051,4457.43589744,4466.66666667,4342.56410256,4334.87179487,1695.0,1661.0,13.013,0.0,0.0,0.0,0.0,mike,0
80.0,4703.07692308,4571.28205128,4632.82051282,4303.58974359,4518.97435897,4026.66666667,4568.20512821,4685.12820513,4568.71794872,4675.38461538,4454.87179487,4460.0,4335.38461538,4328.20512821,1696.0,1661.0,13.024,0.0,0.0,0.0,0.0,mike,0
81.0,4717.94871795,4582.05128205,4647.17948718,4310.76923077,4514.87179487,4031.28205128,4582.05128205,4697.94871795,4583.58974359,4683.07692308,4458.97435897,4471.79487179,4344.61538462,4335.38461538,1694.0,1661.0,13.029,0.0,0.0,0.0,0.0,mike,0
82.0,4725.12820513,4588.20512821,4657.94871795,4318.97435897,4529.74358974,4040.0,4590.76923077,4704.61538462,4591.28205128,4692.30769231,4465.12820513,4482.05128205,4357.43589744,4346.66666667,1695.0,1662.0,13.036,0.0,0.0,0.0,0.0,mike,0
83.0,4709.23076923,4577.43589744,4643.58974359,4311.28205128,4538.46153846,4037.43589744,4578.46153846,4688.71794872,4576.92307692,4682.56410256,4460.0,4471.79487179,4348.71794872,4341.02564103,1695.0,1661.0,13.044,0.0,0.0,0.0,0.0,mike,0
84.0,4698.46153846,4568.71794872,4631.28205128,4302.56410256,4524.61538462,4023.07692308,4567.69230769,4677.43589744,4565.12820513,4671.28205128,4453.33333333,4459.48717949,4335.38461538,4326.15384615,1694.0,1662.0,13.052,0.0,0.0,0.0,0.0,mike,0
85.0,4705.12820513,4571.79487179,4640.51282051,4308.71794872,4515.8974359,4023.58974359,4570.76923077,4684.1025641,4571.79487179,4678.46153846,4456.41025641,4461.53846154,4335.38461538,4325.12820513,1694.0,1663.0,13.06,0.0,0.0,0.0,0.0,mike,0
86.0,4709.23076923,4571.28205128,4645.64102564,4313.84615385,4523.58974359,4035.8974359,4574.35897436,4689.23076923,4575.38461538,4681.02564103,4457.43589744,4464.1025641,4337.94871795,4328.71794872,1694.0,1664.0,13.068,0.0,0.0,0.0,0.0,mike,0
87.0,4702.56410256,4567.69230769,4635.38461538,4304.61538462,4526.15384615,4032.82051282,4571.28205128,4686.15384615,4567.69230769,4674.35897436,4449.23076923,4461.02564103,4333.84615385,4326.15384615,1694.0,1664.0,13.076,0.0,0.0,0.0,0.0,mike,0
88.0,4697.43589744,4568.71794872,4629.23076923,4296.92307692,4521.53846154,4025.64102564,4571.28205128,4687.17948718,4567.17948718,4675.38461538,4448.20512821,4458.97435897,4331.28205128,4324.1025641,1693.0,1664.0,13.083,0.0,0.0,0.0,0.0,mike,0
89.0,4698.46153846,4569.74358974,4632.82051282,4304.1025641,4519.48717949,4028.71794872,4571.79487179,4691.79487179,4573.84615385,4679.48717949,4453.84615385,4460.51282051,4332.30769231,4324.61538462,1694.0,1664.0,13.091,0.0,0.0,0.0,0.0,mike,0
90.0,4697.94871795,4569.74358974,4632.30769231,4311.28205128,4519.48717949,4031.28205128,4572.30769231,4690.25641026,4574.87179487,4678.97435897,4452.82051282,4461.53846154,4335.8974359,4328.20512821,1693.0,1664.0,13.099,0.0,0.0,0.0,0.0,mike,0
91.0,4698.46153846,4568.20512821,4630.25641026,4304.61538462,4523.58974359,4030.76923077,4575.8974359,4689.74358974,4573.33333333,4680.0,4447.69230769,4461.53846154,4338.46153846,4327.69230769,1694.0,1664.0,13.107,0.0,0.0,0.0,0.0,mike,0
92.0,4698.46153846,4568.71794872,4631.79487179,4296.41025641,4525.12820513,4030.76923077,4574.87179487,4689.74358974,4572.82051282,4680.0,4447.17948718,4460.0,4333.33333333,4319.48717949,1692.0,1662.0,13.115,0.0,0.0,0.0,0.0,mike,0
93.0,4690.76923077,4568.71794872,4629.74358974,4296.41025641,4520.51282051,4027.69230769,4569.23076923,4687.69230769,4571.28205128,4676.92307692,4447.17948718,4456.92307692,4327.17948718,4312.30769231,1693.0,1664.0,13.123,0.0,0.0,0.0,0.0,mike,0
94.0,4683.07692308,4561.53846154,4624.61538462,4296.92307692,4520.51282051,4029.23076923,4570.76923077,4694.35897436,4575.8974359,4677.43589744,4447.17948718,4457.94871795,4330.76923077,4311.79487179,1693.0,1662.0,13.13,0.0,0.0,0.0,0.0,mike,0
95.0,4683.07692308,4554.87179487,4626.15384615,4296.41025641,4522.56410256,4032.30769231,4573.33333333,4702.56410256,4581.53846154,4680.0,4448.71794872,4457.43589744,4336.41025641,4311.79487179,1693.0,1663.0,13.138,0.0,0.0,0.0,0.0,mike,0
96.0,4684.1025641,4555.8974359,4628.71794872,4295.38461538,4521.53846154,4029.23076923,4570.76923077,4697.43589744,4580.51282051,4679.48717949,4449.23076923,4454.35897436,4334.35897436,4310.76923077,1693.0,1662.0,13.146,0.0,0.0,0.0,0.0,mike,0
97.0,4684.61538462,4561.02564103,4628.20512821,4296.92307692,4525.12820513,4031.28205128,4576.92307692,4690.25641026,4578.97435897,4679.48717949,4451.79487179,4454.87179487,4334.87179487,4311.28205128,1692.0,1662.0,13.154,0.0,0.0,0.0,0.0,mike,0
98.0,4688.71794872,4563.07692308,4630.76923077,4304.61538462,4526.66666667,4036.92307692,4584.61538462,4689.74358974,4578.46153846,4680.0,4455.38461538,4458.46153846,4340.51282051,4311.79487179,1692.0,1661.0,13.162,0.0,0.0,0.0,0.0,mike,0
99.0,4688.71794872,4563.07692308,4631.79487179,4310.76923077,4518.97435897,4034.35897436,4575.8974359,4681.53846154,4572.30769231,4675.38461538,4453.84615385,4457.43589744,4336.92307692,4310.25641026,1692.0,1661.0,13.169,0.0,0.0,0.0,0.0,mike,0
100.0,4688.71794872,4568.71794872,4632.82051282,4310.25641026,4517.43589744,4027.17948718,4568.20512821,4673.33333333,4569.74358974,4673.84615385,4450.25641026,4458.97435897,4334.35897436,4312.30769231,1693.0,1661.0,13.177,0.0,0.0,0.0,0.0,mike,0
101.0,4689.23076923,4568.71794872,4634.87179487,4306.66666667,4524.1025641,4025.12820513,4571.79487179,4675.38461538,4569.23076923,4672.30769231,4446.66666667,4461.53846154,4333.84615385,4312.82051282,1692.0,1661.0,13.185,0.0,0.0,0.0,0.0,mike,0
102.0,4685.12820513,4556.41025641,4629.74358974,4299.48717949,4523.07692308,4025.64102564,4569.23076923,4674.35897436,4558.46153846,4664.61538462,4442.05128205,4452.82051282,4325.12820513,4309.23076923,1692.0,1661.0,13.197,0.0,0.0,0.0,0.0,mike,0
103.0,4684.1025641,4554.35897436,4626.15384615,4300.51282051,4520.0,4027.17948718,4566.66666667,4676.41025641,4557.43589744,4664.61538462,4441.53846154,4449.74358974,4322.56410256,4308.20512821,1692.0,1660.0,13.201,0.0,0.0,0.0,0.0,mike,0
104.0,4687.69230769,4567.69230769,4631.79487179,4310.25641026,4523.07692308,4028.20512821,4569.23076923,4686.15384615,4567.17948718,4674.35897436,4443.07692308,4457.94871795,4330.25641026,4309.74358974,1692.0,1660.0,13.209,0.0,0.0,0.0,0.0,mike,0
105.0,4692.30769231,4569.74358974,4635.8974359,4310.25641026,4525.12820513,4028.71794872,4572.30769231,4694.35897436,4574.87179487,4679.48717949,4449.23076923,4463.58974359,4337.94871795,4312.82051282,1692.0,1658.0,13.216,0.0,0.0,0.0,0.0,mike,0
106.0,4700.0,4566.66666667,4639.48717949,4310.25641026,4523.58974359,4034.35897436,4579.48717949,4700.51282051,4581.53846154,4685.64102564,4458.46153846,4469.74358974,4342.56410256,4318.97435897,1691.0,1659.0,13.224,0.0,0.0,0.0,0.0,mike,0
107.0,4703.58974359,4569.74358974,4644.61538462,4319.48717949,4518.97435897,4037.43589744,4585.12820513,4698.46153846,4577.94871795,4688.71794872,4458.46153846,4473.84615385,4338.46153846,4321.02564103,1691.0,1657.0,13.235,0.0,0.0,0.0,0.0,mike,0
108.0,4700.51282051,4569.23076923,4641.02564103,4319.48717949,4524.61538462,4034.35897436,4586.15384615,4692.82051282,4570.76923077,4682.05128205,4453.33333333,4471.79487179,4335.8974359,4319.48717949,1690.0,1659.0,13.241,0.0,0.0,0.0,0.0,mike,0
109.0,4702.56410256,4568.71794872,4639.48717949,4321.53846154,4535.8974359,4033.33333333,4584.61538462,4697.43589744,4577.43589744,4681.53846154,4457.94871795,4473.33333333,4346.15384615,4327.69230769,1691.0,1658.0,13.248,0.0,0.0,0.0,0.0,mike,0
110.0,4705.64102564,4571.28205128,4647.69230769,4331.79487179,4532.30769231,4035.8974359,4579.48717949,4705.12820513,4587.17948718,4689.74358974,4463.07692308,4476.92307692,4349.74358974,4336.92307692,1691.0,1658.0,13.255,0.0,0.0,0.0,0.0,mike,0
111.0,4703.07692308,4569.23076923,4649.74358974,4332.30769231,4522.56410256,4035.8974359,4571.79487179,4703.58974359,4584.1025641,4689.74358974,4460.0,4474.87179487,4343.58974359,4334.87179487,1692.0,1659.0,13.263,0.0,0.0,0.0,0.0,mike,0
112.0,4704.61538462,4565.64102564,4645.64102564,4328.20512821,4524.1025641,4032.82051282,4569.74358974,4697.43589744,4582.56410256,4688.71794872,4458.97435897,4475.38461538,4346.15384615,4331.79487179,1690.0,1657.0,13.271,0.0,0.0,0.0,0.0,mike,0
113.0,4708.20512821,4569.23076923,4648.71794872,4331.79487179,4527.69230769,4033.84615385,4577.43589744,4696.41025641,4586.66666667,4691.79487179,4461.53846154,4479.48717949,4352.82051282,4336.41025641,1691.0,1657.0,13.279,0.0,0.0,0.0,0.0,mike,0
114.0,4705.12820513,4569.74358974,4650.25641026,4332.82051282,4524.61538462,4036.41025641,4583.58974359,4696.92307692,4586.66666667,4691.79487179,4461.53846154,4477.94871795,4352.30769231,4340.0,1690.0,1656.0,13.287,0.0,0.0,0.0,0.0,mike,0
115.0,4694.35897436,4558.46153846,4638.46153846,4326.66666667,4523.07692308,4030.25641026,4575.38461538,4688.71794872,4578.46153846,4685.12820513,4459.48717949,4475.38461538,4346.15384615,4332.82051282,1691.0,1658.0,13.295,0.0,0.0,0.0,0.0,mike,0
116.0,4687.17948718,4550.76923077,4631.28205128,4322.56410256,4518.46153846,4022.05128205,4565.12820513,4677.94871795,4566.66666667,4677.43589744,4454.87179487,4472.30769231,4337.43589744,4325.12820513,1692.0,1657.0,13.302,0.0,0.0,0.0,0.0,mike,0
117.0,4698.46153846,4564.61538462,4640.0,4326.66666667,4518.46153846,4028.71794872,4574.35897436,4684.1025641,4572.30769231,4681.02564103,4457.94871795,4475.38461538,4343.07692308,4335.8974359,1690.0,1660.0,13.311,0.0,0.0,0.0,0.0,mike,0
118.0,4707.69230769,4576.41025641,4644.1025641,4331.79487179,4525.64102564,4036.92307692,4582.56410256,4693.33333333,4581.53846154,4688.71794872,4464.1025641,4481.02564103,4353.84615385,4346.66666667,1692.0,1657.0,13.318,0.0,0.0,0.0,0.0,mike,0
119.0,4694.35897436,4561.53846154,4634.35897436,4327.17948718,4525.12820513,4030.76923077,4571.28205128,4686.15384615,4572.82051282,4682.05128205,4456.41025641,4474.87179487,4344.61538462,4332.82051282,1692.0,1658.0,13.326,0.0,0.0,0.0,0.0,mike,0
120.0,4684.61538462,4554.35897436,4628.71794872,4321.02564103,4521.53846154,4026.15384615,4565.64102564,4682.05128205,4565.12820513,4672.30769231,4448.20512821,4469.23076923,4335.8974359,4322.05128205,1694.0,1658.0,13.334,0.0,0.0,0.0,0.0,mike,0
121.0,4693.84615385,4568.20512821,4632.30769231,4324.1025641,4524.61538462,4030.76923077,4570.25641026,4692.30769231,4571.28205128,4677.43589744,4453.84615385,4472.82051282,4342.05128205,4331.79487179,1693.0,1658.0,13.341,0.0,0.0,0.0,0.0,mike,0
122.0,4702.05128205,4573.84615385,4638.46153846,4330.25641026,4525.64102564,4030.76923077,4571.79487179,4698.97435897,4580.51282051,4688.20512821,4462.05128205,4476.92307692,4347.17948718,4338.46153846,1693.0,1659.0,13.35,0.0,0.0,0.0,0.0,mike,0
123.0,4700.0,4566.66666667,4640.51282051,4332.30769231,4521.02564103,4028.20512821,4569.23076923,4696.92307692,4582.56410256,4686.15384615,4457.94871795,4474.35897436,4343.07692308,4331.79487179,1693.0,1660.0,13.357,0.0,0.0,0.0,0.0,mike,0
124.0,4696.92307692,4567.69230769,4635.38461538,4330.76923077,4520.0,4028.20512821,4569.23076923,4692.82051282,4576.41025641,4676.92307692,4451.79487179,4469.74358974,4338.46153846,4326.66666667,1694.0,1661.0,13.366,0.0,0.0,0.0,0.0,mike,0
125.0,4692.30769231,4566.66666667,4630.25641026,4325.12820513,4521.02564103,4026.66666667,4568.71794872,4685.12820513,4567.17948718,4670.76923077,4449.23076923,4465.12820513,4333.84615385,4325.64102564,1694.0,1660.0,13.374,0.0,0.0,0.0,0.0,mike,0
126.0,4691.28205128,4559.48717949,4629.74358974,4321.02564103,4524.61538462,4026.66666667,4569.23076923,4677.94871795,4565.12820513,4670.76923077,4448.71794872,4460.0,4333.33333333,4325.12820513,1695.0,1660.0,13.381,0.0,0.0,0.0,0.0,mike,0
127.0,4698.97435897,4567.17948718,4633.84615385,4326.15384615,4528.71794872,4030.76923077,4570.76923077,4682.05128205,4571.28205128,4675.38461538,4453.84615385,4464.1025641,4340.51282051,4328.20512821,1694.0,1660.0,13.388,0.0,0.0,0.0,0.0,mike,0
128.0,4700.0,4567.69230769,4634.87179487,4326.66666667,4524.1025641,4026.66666667,4562.05128205,4684.1025641,4568.71794872,4673.84615385,4450.76923077,4465.64102564,4337.94871795,4326.15384615,1695.0,1661.0,13.397,0.0,0.0,0.0,0.0,mike,0
0.0,4695.38461538,4558.97435897,4630.25641026,4321.53846154,4516.92307692,4018.46153846,4554.35897436,4676.92307692,4561.02564103,4668.71794872,4444.1025641,4458.46153846,4329.74358974,4323.07692308,1694.0,1661.0,13.405,0.0,0.0,0.0,0.0,mike,0
1.0,4699.48717949,4565.12820513,4630.25641026,4324.1025641,4518.46153846,4022.05128205,4561.53846154,4679.48717949,4566.15384615,4673.84615385,4451.79487179,4461.53846154,4337.94871795,4329.74358974,1694.0,1661.0,13.415,0.0,0.0,0.0,0.0,mike,0
2.0,4706.15384615,4574.35897436,4638.46153846,4328.71794872,4522.05128205,4027.69230769,4570.25641026,4689.23076923,4576.41025641,4683.07692308,4462.05128205,4474.87179487,4349.74358974,4338.97435897,1694.0,1661.0,13.42,0.0,0.0,0.0,0.0,mike,0
3.0,4704.61538462,4568.20512821,4644.61538462,4329.23076923,4519.48717949,4030.25641026,4570.25641026,4690.76923077,4574.87179487,4681.53846154,4462.56410256,4474.35897436,4346.15384615,4336.92307692,1694.0,1661.0,13.428,0.0,0.0,0.0,0.0,mike,0
4.0,4700.51282051,4566.66666667,4639.48717949,4330.76923077,4521.02564103,4033.33333333,4569.74358974,4684.61538462,4569.74358974,4673.33333333,4455.8974359,4459.48717949,4337.94871795,4328.20512821,1693.0,1661.0,13.435,0.0,0.0,0.0,0.0,mike,0
5.0,4697.94871795,4571.28205128,4633.33333333,4330.76923077,4525.12820513,4026.66666667,4565.64102564,4680.0,4568.71794872,4671.79487179,4449.74358974,4455.8974359,4335.8974359,4325.12820513,1693.0,1662.0,13.448,0.0,0.0,0.0,0.0,mike,0
