COUNTER,AF3,F7,F3,FC5,T7,P7,O1,O2,P8,T8,FC6,F4,F8,AF4,GYROX,GYROY,TIMESTAMP,FUNC_ID,FUNC_VALUE,MARKER,SYNC_SIGNAL,USER,CLASS
110.0,4707.69230769,4569.23076923,4616.41025641,4284.61538462,4551.28205128,4029.74358974,4545.12820513,4686.66666667,4555.38461538,4680.0,4442.56410256,4492.82051282,4335.8974359,4307.69230769,1694.0,1662.0,16.699,0.0,0.0,0.0,0.0,mike,0
111.0,4704.61538462,4571.28205128,4616.41025641,4286.15384615,4556.41025641,4032.30769231,4549.23076923,4686.66666667,4557.43589744,4682.56410256,4443.58974359,4496.41025641,4336.41025641,4302.56410256,1694.0,1661.0,16.707,0.0,0.0,0.0,0.0,mike,0
112.0,4710.25641026,4576.92307692,4618.97435897,4287.17948718,4553.33333333,4033.33333333,4549.74358974,4682.56410256,4557.94871795,4687.17948718,4447.69230769,4506.15384615,4340.51282051,4308.71794872,1694.0,1663.0,16.714,0.0,0.0,0.0,0.0,mike,0
113.0,4709.23076923,4575.8974359,4618.97435897,4281.02564103,4546.15384615,4022.56410256,4538.46153846,4674.87179487,4554.87179487,4681.53846154,4444.1025641,4506.66666667,4335.8974359,4311.79487179,1695.0,1662.0,16.722,0.0,0.0,0.0,0.0,mike,0
114.0,4706.66666667,4574.35897436,4616.92307692,4278.46153846,4541.53846154,4015.38461538,4533.33333333,4672.30769231,4553.33333333,4676.41025641,4441.53846154,4496.92307692,4332.82051282,4303.07692308,1694.0,1663.0,16.73,0.0,0.0,0.0,0.0,mike,0
115.0,4711.28205128,4570.76923077,4617.94871795,4282.05128205,4540.51282051,4020.51282051,4539.48717949,4674.35897436,4555.8974359,4680.0,4442.56410256,4493.33333333,4334.35897436,4297.43589744,1695.0,1663.0,16.738,0.0,0.0,0.0,0.0,mike,0
116.0,4711.28205128,4565.64102564,4617.94871795,4281.02564103,4536.92307692,4021.02564103,4538.97435897,4673.84615385,4553.33333333,4677.43589744,4440.51282051,4492.82051282,4329.23076923,4296.41025641,1694.0,1663.0,16.746,0.0,0.0,0.0,0.0,mike,0
117.0,4702.05128205,4566.15384615,4614.87179487,4278.46153846,4536.41025641,4016.92307692,4536.41025641,4670.76923077,4545.12820513,4670.25641026,4438.46153846,4491.28205128,4323.58974359,4295.38461538,1694.0,1663.0,16.754,0.0,0.0,0.0,0.0,mike,0
118.0,4699.48717949,4570.76923077,4616.41025641,4280.0,4549.23076923,4024.1025641,4539.48717949,4675.38461538,4548.20512821,4673.84615385,4442.56410256,4492.30769231,4328.71794872,4299.48717949,1694.0,1663.0,16.761,0.0,0.0,0.0,0.0,mike,0
119.0,4705.64102564,4572.30769231,4618.46153846,4282.56410256,4557.94871795,4031.28205128,4542.05128205,4679.48717949,4555.38461538,4678.97435897,4444.61538462,4493.84615385,4335.8974359,4307.17948718,1695.0,1664.0,16.769,0.0,0.0,0.0,0.0,mike,0
120.0,4708.71794872,4571.28205128,4616.92307692,4280.0,4542.56410256,4024.1025641,4540.51282051,4668.71794872,4545.12820513,4673.33333333,4442.56410256,4492.30769231,4336.41025641,4310.25641026,1695.0,1663.0,16.777,0.0,0.0,0.0,0.0,mike,0
121.0,4707.17948718,4571.79487179,4615.8974359,4277.94871795,4531.28205128,4018.97435897,4538.97435897,4662.05128205,4535.8974359,4671.28205128,4443.58974359,4493.33333333,4333.84615385,4307.69230769,1695.0,1664.0,16.785,0.0,0.0,0.0,0.0,mike,0
122.0,4709.23076923,4570.76923077,4617.94871795,4280.51282051,4542.05128205,4023.58974359,4539.48717949,4672.30769231,4548.20512821,4678.46153846,4444.1025641,4494.35897436,4332.30769231,4306.15384615,1694.0,1663.0,16.793,0.0,0.0,0.0,0.0,mike,0
123.0,4712.30769231,4570.25641026,4618.46153846,4282.56410256,4551.79487179,4027.17948718,4541.53846154,4680.0,4560.0,4680.0,4442.56410256,4493.84615385,4337.94871795,4307.69230769,1695.0,1663.0,16.801,0.0,0.0,0.0,0.0,mike,0
124.0,4708.71794872,4575.8974359,4615.8974359,4279.48717949,4550.25641026,4027.17948718,4540.0,4676.92307692,4554.87179487,4679.48717949,4448.20512821,4497.94871795,4342.05128205,4310.25641026,1694.0,1664.0,16.808,0.0,0.0,0.0,0.0,mike,0
125.0,4711.28205128,4584.61538462,4618.97435897,4282.56410256,4551.79487179,4027.17948718,4540.0,4681.02564103,4554.35897436,4685.64102564,4456.41025641,4506.15384615,4342.05128205,4314.87179487,1694.0,1663.0,16.816,0.0,0.0,0.0,0.0,mike,0
126.0,4721.02564103,4589.23076923,4628.71794872,4292.30769231,4551.79487179,4029.74358974,4547.17948718,4689.23076923,4564.1025641,4690.25641026,4460.0,4510.25641026,4346.66666667,4319.48717949,1693.0,1663.0,16.825,0.0,0.0,0.0,0.0,mike,0
127.0,4722.05128205,4582.56410256,4630.25641026,4296.41025641,4538.97435897,4028.71794872,4547.69230769,4687.17948718,4562.56410256,4689.23076923,4457.43589744,4509.23076923,4352.82051282,4318.46153846,1695.0,1663.0,16.832,0.0,0.0,0.0,0.0,mike,0
128.0,4717.43589744,4577.94871795,4628.20512821,4291.28205128,4538.46153846,4024.1025641,4538.97435897,4681.02564103,4555.38461538,4688.20512821,4456.92307692,4507.17948718,4348.71794872,4317.94871795,1694.0,1662.0,16.84,0.0,0.0,0.0,0.0,mike,0
0.0,4720.51282051,4582.56410256,4632.82051282,4287.17948718,4554.35897436,4026.66666667,4540.0,4678.97435897,4556.41025641,4689.23076923,4457.94871795,4507.17948718,4343.58974359,4320.0,1694.0,1663.0,16.847,0.0,0.0,0.0,0.0,mike,0
1.0,4721.02564103,4581.53846154,4628.71794872,4283.07692308,4557.43589744,4031.79487179,4542.56410256,4681.02564103,4558.97435897,4688.20512821,4451.28205128,4509.23076923,4344.61538462,4315.38461538,1693.0,1662.0,16.855,0.0,0.0,0.0,0.0,mike,0
2.0,4712.82051282,4572.82051282,4616.92307692,4275.8974359,4548.71794872,4027.69230769,4532.30769231,4678.46153846,4554.35897436,4684.1025641,4447.17948718,4504.1025641,4343.58974359,4310.25641026,1693.0,1663.0,16.863,0.0,0.0,0.0,0.0,mike,0
3.0,4714.35897436,4575.38461538,4621.53846154,4282.56410256,4550.76923077,4027.69230769,4530.76923077,4681.02564103,4560.0,4687.69230769,4456.41025641,4504.61538462,4345.12820513,4316.92307692,1694.0,1662.0,16.871,0.0,0.0,0.0,0.0,mike,0
4.0,4728.20512821,4590.25641026,4635.8974359,4300.0,4554.35897436,4031.28205128,4541.02564103,4693.84615385,4573.33333333,4698.97435897,4467.17948718,4518.97435897,4356.92307692,4333.33333333,1692.0,1662.0,16.879,0.0,0.0,0.0,0.0,mike,0
5.0,4730.25641026,4589.23076923,4636.92307692,4294.35897436,4546.66666667,4024.61538462,4536.41025641,4692.82051282,4569.23076923,4694.87179487,4461.02564103,4521.02564103,4358.97435897,4335.38461538,1694.0,1663.0,16.887,0.0,0.0,0.0,0.0,mike,0
6.0,4719.48717949,4573.84615385,4627.17948718,4276.92307692,4537.94871795,4022.56410256,4523.58974359,4673.33333333,4551.79487179,4676.92307692,4446.66666667,4503.58974359,4341.02564103,4317.94871795,1693.0,1662.0,16.894,0.0,0.0,0.0,0.0,mike,0
7.0,4713.33333333,4570.76923077,4621.53846154,4278.97435897,4537.43589744,4028.20512821,4523.58974359,4665.12820513,4542.05128205,4668.71794872,4440.0,4494.87179487,4326.66666667,4307.17948718,1693.0,1663.0,16.902,0.0,0.0,0.0,0.0,mike,0
8.0,4703.58974359,4567.69230769,4613.84615385,4277.94871795,4542.56410256,4025.12820513,4527.17948718,4666.66666667,4540.51282051,4664.1025641,4430.25641026,4490.25641026,4320.51282051,4302.05128205,1693.0,1661.0,16.91,0.0,0.0,0.0,0.0,mike,0
9.0,4687.17948718,4550.25641026,4602.05128205,4262.56410256,4540.51282051,4015.8974359,4522.05128205,4660.0,4534.87179487,4653.33333333,4412.82051282,4476.92307692,4307.17948718,4285.12820513,1693.0,1662.0,16.918,0.0,0.0,0.0,0.0,mike,0
10.0,4687.69230769,4548.71794872,4601.53846154,4264.61538462,4532.82051282,4013.84615385,4519.48717949,4661.53846154,4534.87179487,4656.41025641,4411.79487179,4475.38461538,4303.07692308,4282.05128205,1693.0,1661.0,16.926,0.0,0.0,0.0,0.0,mike,0
11.0,4703.07692308,4569.23076923,4613.33333333,4277.43589744,4534.87179487,4018.46153846,4521.53846154,4676.92307692,4547.69230769,4671.79487179,4434.35897436,4489.74358974,4321.02564103,4301.53846154,1694.0,1662.0,16.933,0.0,0.0,0.0,0.0,mike,0
12.0,4709.74358974,4575.8974359,4616.92307692,4277.94871795,4547.69230769,4026.15384615,4527.17948718,4681.53846154,4555.38461538,4677.43589744,4446.66666667,4495.38461538,4335.38461538,4310.25641026,1694.0,1662.0,16.941,0.0,0.0,0.0,0.0,mike,0
13.0,4710.76923077,4572.30769231,4615.38461538,4277.43589744,4556.92307692,4030.25641026,4535.38461538,4676.41025641,4554.35897436,4675.8974359,4444.1025641,4493.84615385,4335.38461538,4308.71794872,1693.0,1663.0,16.949,0.0,0.0,0.0,0.0,mike,0
14.0,4713.33333333,4577.43589744,4618.97435897,4282.05128205,4550.76923077,4027.17948718,4535.38461538,4676.92307692,4555.8974359,4677.94871795,4445.64102564,4496.92307692,4335.38461538,4310.25641026,1695.0,1662.0,16.957,0.0,0.0,0.0,0.0,mike,0
15.0,4705.12820513,4573.84615385,4613.33333333,4280.0,4539.48717949,4020.51282051,4524.1025641,4672.82051282,4551.28205128,4675.38461538,4441.02564103,4488.71794872,4330.76923077,4302.56410256,1693.0,1662.0,16.965,0.0,0.0,0.0,0.0,mike,0
16.0,4695.38461538,4565.12820513,4607.17948718,4276.41025641,4533.33333333,4016.41025641,4518.46153846,4663.07692308,4544.1025641,4669.74358974,4431.79487179,4479.48717949,4324.61538462,4293.33333333,1695.0,1661.0,16.973,0.0,0.0,0.0,0.0,mike,0
17.0,4699.48717949,4568.71794872,4611.79487179,4276.92307692,4537.43589744,4021.02564103,4522.05128205,4662.05128205,4548.71794872,4673.33333333,4433.33333333,4485.64102564,4325.64102564,4294.87179487,1695.0,1659.0,16.98,0.0,0.0,0.0,0.0,mike,0
18.0,4703.58974359,4570.76923077,4612.30769231,4274.35897436,4542.56410256,4022.56410256,4523.07692308,4663.07692308,4546.66666667,4672.30769231,4432.30769231,4484.1025641,4327.17948718,4296.92307692,1696.0,1660.0,16.988,0.0,0.0,0.0,0.0,mike,0
19.0,4701.02564103,4566.15384615,4611.28205128,4275.38461538,4537.43589744,4018.46153846,4522.56410256,4661.02564103,4535.38461538,4664.61538462,4428.71794872,4478.97435897,4324.61538462,4292.30769231,1695.0,1660.0,16.996,0.0,0.0,0.0,0.0,mike,0
20.0,4703.07692308,4570.76923077,4613.33333333,4279.48717949,4534.35897436,4021.02564103,4524.1025641,4666.66666667,4543.58974359,4669.23076923,4436.92307692,4488.71794872,4325.64102564,4294.35897436,1695.0,1662.0,17.004,0.0,0.0,0.0,0.0,mike,0
21.0,4703.58974359,4572.30769231,4609.23076923,4275.8974359,4543.07692308,4023.58974359,4525.12820513,4674.87179487,4557.94871795,4682.56410256,4442.05128205,4492.82051282,4329.74358974,4298.46153846,1694.0,1662.0,17.012,0.0,0.0,0.0,0.0,mike,0
22.0,4693.84615385,4558.46153846,4598.97435897,4263.58974359,4539.48717949,4018.46153846,4522.56410256,4670.25641026,4553.33333333,4679.48717949,4429.23076923,4476.41025641,4326.15384615,4287.69230769,1695.0,1663.0,17.019,0.0,0.0,0.0,0.0,mike,0
23.0,4692.82051282,4553.33333333,4600.51282051,4263.07692308,4525.12820513,4015.8974359,4520.0,4667.17948718,4548.71794872,4672.82051282,4427.17948718,4474.87179487,4324.1025641,4284.1025641,1694.0,1662.0,17.027,0.0,0.0,0.0,0.0,mike,0
24.0,4704.61538462,4567.69230769,4611.79487179,4275.38461538,4531.79487179,4020.51282051,4524.1025641,4676.41025641,4554.87179487,4676.92307692,4442.05128205,4491.28205128,4331.28205128,4304.61538462,1692.0,1662.0,17.035,0.0,0.0,0.0,0.0,mike,0
25.0,4708.20512821,4576.41025641,4617.94871795,4283.58974359,4546.15384615,4023.07692308,4526.66666667,4682.05128205,4555.38461538,4677.94871795,4441.02564103,4494.87179487,4334.35897436,4312.82051282,1694.0,1662.0,17.043,0.0,0.0,0.0,0.0,mike,0
26.0,4702.05128205,4566.15384615,4615.8974359,4279.48717949,4539.48717949,4021.53846154,4523.07692308,4677.43589744,4550.76923077,4670.76923077,4427.69230769,4490.25641026,4325.64102564,4296.92307692,1692.0,1663.0,17.051,0.0,0.0,0.0,0.0,mike,0
27.0,4699.48717949,4555.8974359,4613.84615385,4268.71794872,4532.30769231,4018.46153846,4522.56410256,4672.30769231,4549.23076923,4665.12820513,4425.12820513,4489.23076923,4315.38461538,4287.17948718,1693.0,1663.0,17.058,0.0,0.0,0.0,0.0,mike,0
28.0,4704.1025641,4557.43589744,4614.35897436,4267.69230769,4540.51282051,4022.56410256,4525.12820513,4673.33333333,4552.30769231,4667.69230769,4430.76923077,4490.76923077,4311.79487179,4290.25641026,1692.0,1663.0,17.066,0.0,0.0,0.0,0.0,mike,0
29.0,4702.05128205,4558.46153846,4612.30769231,4274.87179487,4541.02564103,4026.66666667,4525.64102564,4677.43589744,4555.38461538,4677.43589744,4430.76923077,4489.23076923,4317.94871795,4290.76923077,1692.0,1664.0,17.074,0.0,0.0,0.0,0.0,mike,0
30.0,4694.87179487,4555.38461538,4608.71794872,4275.38461538,4533.84615385,4021.02564103,4526.66666667,4677.94871795,4555.38461538,4681.53846154,4429.23076923,4488.71794872,4325.12820513,4294.35897436,1693.0,1664.0,17.082,0.0,0.0,0.0,0.0,mike,0
31.0,4700.0,4560.0,4613.84615385,4274.87179487,4539.48717949,4023.58974359,4533.84615385,4682.56410256,4556.92307692,4678.97435897,4434.35897436,4492.82051282,4328.71794872,4301.02564103,1694.0,1664.0,17.09,0.0,0.0,0.0,0.0,mike,0
32.0,4706.66666667,4563.07692308,4617.94871795,4277.43589744,4539.48717949,4028.20512821,4540.0,4690.25641026,4560.0,4681.02564103,4437.43589744,4496.41025641,4330.25641026,4302.56410256,1694.0,1663.0,17.098,0.0,0.0,0.0,0.0,mike,0
33.0,4697.43589744,4555.38461538,4608.20512821,4278.46153846,4525.64102564,4024.1025641,4534.35897436,4684.1025641,4555.8974359,4677.94871795,4430.76923077,4488.71794872,4325.64102564,4296.41025641,1693.0,1663.0,17.105,0.0,0.0,0.0,0.0,mike,0
34.0,4687.69230769,4552.30769231,4598.46153846,4272.30769231,4524.1025641,4022.05128205,4528.20512821,4673.33333333,4549.23076923,4663.07692308,4424.1025641,4475.38461538,4312.82051282,4282.56410256,1694.0,1663.0,17.113,0.0,0.0,0.0,0.0,mike,0
35.0,4690.76923077,4555.38461538,4602.05128205,4265.12820513,4542.05128205,4027.69230769,4534.87179487,4678.97435897,4550.25641026,4663.58974359,4428.71794872,4473.33333333,4310.25641026,4277.43589744,1693.0,1664.0,17.121,0.0,0.0,0.0,0.0,mike,0
36.0,4691.79487179,4553.33333333,4604.61538462,4266.15384615,4553.33333333,4027.69230769,4542.05128205,4682.56410256,4555.38461538,4678.46153846,4431.79487179,4476.92307692,4317.94871795,4286.66666667,1694.0,1664.0,17.129,0.0,0.0,0.0,0.0,mike,0
37.0,4688.20512821,4553.33333333,4602.56410256,4272.30769231,4548.71794872,4024.61538462,4540.0,4673.84615385,4552.30769231,4675.8974359,4428.71794872,4475.8974359,4318.46153846,4292.30769231,1693.0,1664.0,17.137,0.0,0.0,0.0,0.0,mike,0
38.0,4693.84615385,4560.0,4605.12820513,4274.87179487,4545.64102564,4025.12820513,4538.97435897,4676.41025641,4544.1025641,4664.61538462,4428.20512821,4481.02564103,4314.35897436,4286.66666667,1694.0,1664.0,17.145,0.0,0.0,0.0,0.0,mike,0
39.0,4693.33333333,4555.38461538,4604.61538462,4273.33333333,4534.35897436,4017.43589744,4538.46153846,4681.02564103,4533.33333333,4664.1025641,4426.66666667,4487.17948718,4311.28205128,4281.53846154,1694.0,1662.0,17.152,0.0,0.0,0.0,0.0,mike,0
40.0,4688.71794872,4549.74358974,4603.58974359,4273.84615385,4521.53846154,4010.25641026,4538.46153846,4677.94871795,4529.23076923,4666.66666667,4424.61538462,4483.58974359,4311.79487179,4285.12820513,1694.0,1663.0,17.16,0.0,0.0,0.0,0.0,mike,0
41.0,4697.94871795,4557.94871795,4613.84615385,4275.38461538,4540.51282051,4024.1025641,4552.30769231,4684.61538462,4537.94871795,4671.28205128,4427.69230769,4487.69230769,4320.0,4294.35897436,1694.0,1662.0,17.168,0.0,0.0,0.0,0.0,mike,0
42.0,4705.64102564,4564.1025641,4616.41025641,4274.35897436,4560.51282051,4037.94871795,4562.56410256,4691.28205128,4542.56410256,4673.84615385,4430.76923077,4494.35897436,4322.56410256,4297.43589744,1694.0,1662.0,17.176,0.0,0.0,0.0,0.0,mike,0
43.0,4694.35897436,4553.33333333,4602.56410256,4268.71794872,4546.66666667,4026.66666667,4545.64102564,4673.33333333,4533.33333333,4664.61538462,4425.64102564,4483.07692308,4311.28205128,4284.1025641,1694.0,1661.0,17.184,0.0,0.0,0.0,0.0,mike,0
44.0,4696.41025641,4548.71794872,4602.05128205,4268.20512821,4534.87179487,4015.38461538,4536.92307692,4660.51282051,4532.30769231,4662.56410256,4423.58974359,4476.41025641,4309.23076923,4278.97435897,1693.0,1662.0,17.191,0.0,0.0,0.0,0.0,mike,0
45.0,4719.48717949,4565.12820513,4618.46153846,4279.48717949,4545.12820513,4023.58974359,4553.84615385,4678.46153846,4549.74358974,4682.56410256,4434.87179487,4496.41025641,4326.15384615,4299.48717949,1694.0,1661.0,17.199,0.0,0.0,0.0,0.0,mike,0
46.0,4725.12820513,4568.20512821,4621.53846154,4284.1025641,4541.53846154,4022.56410256,4550.76923077,4688.20512821,4557.94871795,4689.74358974,4444.61538462,4507.69230769,4334.35897436,4310.76923077,1693.0,1662.0,17.207,0.0,0.0,0.0,0.0,mike,0
47.0,4715.8974359,4553.84615385,4615.8974359,4275.38461538,4533.33333333,4016.41025641,4533.84615385,4676.41025641,4550.76923077,4677.43589744,4439.48717949,4496.41025641,4325.12820513,4299.48717949,1694.0,1660.0,17.215,0.0,0.0,0.0,0.0,mike,0
48.0,4718.97435897,4558.46153846,4618.97435897,4278.46153846,4538.46153846,4023.58974359,4542.56410256,4676.92307692,4550.76923077,4677.43589744,4432.82051282,4491.28205128,4322.56410256,4295.38461538,1694.0,1660.0,17.223,0.0,0.0,0.0,0.0,mike,0
49.0,4719.48717949,4572.82051282,4613.33333333,4283.07692308,4541.02564103,4024.1025641,4550.76923077,4681.02564103,4553.33333333,4682.05128205,4432.30769231,4493.33333333,4326.66666667,4297.43589744,1694.0,1660.0,17.231,0.0,0.0,0.0,0.0,mike,0
50.0,4704.61538462,4562.05128205,4600.0,4272.30769231,4537.94871795,4013.33333333,4536.92307692,4673.33333333,4549.23076923,4673.84615385,4428.20512821,4488.20512821,4321.53846154,4294.35897436,1694.0,1660.0,17.238,0.0,0.0,0.0,0.0,mike,0
51.0,4704.61538462,4548.20512821,4606.66666667,4270.25641026,4536.41025641,4012.30769231,4532.30769231,4674.35897436,4549.74358974,4671.28205128,4430.76923077,4485.12820513,4317.94871795,4292.82051282,1694.0,1660.0,17.246,0.0,0.0,0.0,0.0,mike,0
52.0,4723.07692308,4562.05128205,4622.05128205,4282.05128205,4542.56410256,4024.61538462,4545.64102564,4687.17948718,4556.92307692,4680.0,4441.53846154,4491.28205128,4326.15384615,4295.8974359,1694.0,1661.0,17.254,0.0,0.0,0.0,0.0,mike,0
53.0,4728.71794872,4572.82051282,4623.58974359,4283.58974359,4554.87179487,4030.25641026,4554.87179487,4689.74358974,4557.94871795,4684.1025641,4443.58974359,4498.97435897,4329.23076923,4301.53846154,1694.0,1660.0,17.262,0.0,0.0,0.0,0.0,mike,0
54.0,4727.69230769,4571.79487179,4623.07692308,4280.0,4557.43589744,4024.1025641,4555.38461538,4687.17948718,4554.87179487,4682.05128205,4440.51282051,4503.07692308,4327.17948718,4309.23076923,1693.0,1660.0,17.27,0.0,0.0,0.0,0.0,mike,0
55.0,4734.35897436,4577.94871795,4627.69230769,4287.17948718,4549.23076923,4023.07692308,4552.30769231,4690.76923077,4555.8974359,4684.61538462,4444.1025641,4506.15384615,4333.84615385,4313.84615385,1694.0,1660.0,17.277,0.0,0.0,0.0,0.0,mike,0
56.0,4735.8974359,4580.51282051,4626.66666667,4287.69230769,4548.20512821,4027.69230769,4547.17948718,4687.17948718,4556.41025641,4685.12820513,4445.12820513,4502.56410256,4336.41025641,4311.79487179,1692.0,1660.0,17.285,0.0,0.0,0.0,0.0,mike,0
57.0,4731.28205128,4571.79487179,4622.56410256,4279.48717949,4550.25641026,4029.74358974,4548.71794872,4680.51282051,4554.87179487,4683.58974359,4442.05128205,4498.46153846,4328.20512821,4310.76923077,1693.0,1661.0,17.293,0.0,0.0,0.0,0.0,mike,0
58.0,4728.71794872,4570.76923077,4622.05128205,4281.53846154,4542.56410256,4027.17948718,4551.79487179,4683.58974359,4557.43589744,4684.61538462,4441.53846154,4495.8974359,4328.20512821,4306.66666667,1693.0,1660.0,17.301,0.0,0.0,0.0,0.0,mike,0
59.0,4719.48717949,4569.23076923,4616.92307692,4282.56410256,4533.33333333,4021.53846154,4544.61538462,4682.05128205,4552.82051282,4680.0,4434.87179487,4491.28205128,4324.61538462,4296.41025641,1693.0,1661.0,17.309,0.0,0.0,0.0,0.0,mike,0
60.0,4708.71794872,4556.92307692,4607.69230769,4271.28205128,4538.46153846,4017.43589744,4535.38461538,4671.79487179,4542.05128205,4670.76923077,4425.12820513,4487.17948718,4313.33333333,4291.79487179,1694.0,1660.0,17.317,0.0,0.0,0.0,0.0,mike,0
61.0,4710.25641026,4556.92307692,4605.12820513,4266.66666667,4550.25641026,4017.94871795,4535.8974359,4671.79487179,4544.61538462,4673.84615385,4429.23076923,4488.20512821,4320.51282051,4298.97435897,1693.0,1661.0,17.324,0.0,0.0,0.0,0.0,mike,0
62.0,4717.94871795,4569.23076923,4609.74358974,4276.41025641,4546.66666667,4018.46153846,4540.51282051,4678.97435897,4554.35897436,4685.12820513,4441.53846154,4492.82051282,4335.38461538,4306.15384615,1694.0,1661.0,17.332,0.0,0.0,0.0,0.0,mike,0
63.0,4719.48717949,4570.25641026,4609.23076923,4280.0,4538.97435897,4016.41025641,4538.46153846,4677.43589744,4554.35897436,4683.58974359,4445.12820513,4493.84615385,4330.76923077,4306.15384615,1693.0,1662.0,17.34,0.0,0.0,0.0,0.0,mike,0
64.0,4717.43589744,4565.12820513,4605.64102564,4275.38461538,4541.53846154,4016.92307692,4534.35897436,4671.28205128,4550.76923077,4677.43589744,4437.43589744,4492.82051282,4324.61538462,4303.58974359,1694.0,1662.0,17.348,0.0,0.0,0.0,0.0,mike,0
65.0,4718.46153846,4569.23076923,4609.23076923,4279.48717949,4539.48717949,4017.94871795,4534.87179487,4669.23076923,4545.64102564,4676.92307692,4432.82051282,4491.28205128,4328.20512821,4301.02564103,1693.0,1663.0,17.356,0.0,0.0,0.0,0.0,mike,0
66.0,4718.46153846,4569.74358974,4610.76923077,4280.51282051,4534.87179487,4017.94871795,4535.8974359,4667.69230769,4538.46153846,4677.43589744,4432.30769231,4488.71794872,4327.17948718,4297.94871795,1695.0,1663.0,17.363,0.0,0.0,0.0,0.0,mike,0
67.0,4715.38461538,4560.0,4605.12820513,4269.74358974,4537.43589744,4013.84615385,4533.84615385,4669.74358974,4541.53846154,4677.43589744,4434.35897436,4487.69230769,4323.07692308,4296.92307692,1694.0,1663.0,17.371,0.0,0.0,0.0,0.0,mike,0
68.0,4715.8974359,4556.92307692,4601.53846154,4268.20512821,4538.46153846,4007.69230769,4535.38461538,4674.35897436,4551.79487179,4682.05128205,4437.43589744,4489.23076923,4326.66666667,4300.0,1695.0,1664.0,17.379,0.0,0.0,0.0,0.0,mike,0
69.0,4718.46153846,4563.07692308,4603.58974359,4276.41025641,4534.87179487,4007.69230769,4535.8974359,4680.0,4556.92307692,4686.66666667,4437.94871795,4490.25641026,4333.33333333,4303.07692308,1694.0,1662.0,17.387,0.0,0.0,0.0,0.0,mike,0
70.0,4720.0,4566.15384615,4608.71794872,4277.43589744,4540.0,4015.8974359,4526.66666667,4682.05128205,4557.43589744,4685.64102564,4439.48717949,4490.76923077,4334.87179487,4305.64102564,1694.0,1664.0,17.395,0.0,0.0,0.0,0.0,mike,0
71.0,4717.94871795,4566.66666667,4606.15384615,4273.33333333,4542.05128205,4021.02564103,4525.64102564,4672.30769231,4553.84615385,4683.58974359,4442.56410256,4492.82051282,4333.33333333,4305.64102564,1695.0,1662.0,17.403,0.0,0.0,0.0,0.0,mike,0
72.0,4715.38461538,4569.74358974,4600.0,4276.92307692,4535.8974359,4017.43589744,4533.33333333,4665.64102564,4551.79487179,4686.66666667,4443.58974359,4491.79487179,4332.82051282,4305.12820513,1693.0,1663.0,17.41,0.0,0.0,0.0,0.0,mike,0
73.0,4714.87179487,4566.66666667,4600.51282051,4280.51282051,4534.87179487,4015.8974359,4534.87179487,4669.74358974,4551.79487179,4686.66666667,4441.53846154,4488.20512821,4334.87179487,4308.20512821,1694.0,1663.0,17.418,0.0,0.0,0.0,0.0,mike,0
74.0,4718.97435897,4562.56410256,4607.17948718,4278.46153846,4541.02564103,4020.51282051,4534.35897436,4673.33333333,4552.82051282,4682.05128205,4443.58974359,4489.74358974,4334.87179487,4310.76923077,1694.0,1663.0,17.426,0.0,0.0,0.0,0.0,mike,0
75.0,4722.56410256,4566.66666667,4607.69230769,4277.43589744,4542.05128205,4022.05128205,4536.41025641,4674.35897436,4554.35897436,4682.56410256,4445.12820513,4492.82051282,4332.30769231,4309.23076923,1695.0,1663.0,17.434,0.0,0.0,0.0,0.0,mike,0
76.0,4722.56410256,4566.15384615,4604.1025641,4277.94871795,4540.0,4017.94871795,4535.38461538,4676.92307692,4553.84615385,4685.64102564,4442.56410256,4491.28205128,4334.35897436,4308.71794872,1694.0,1663.0,17.442,0.0,0.0,0.0,0.0,mike,0
77.0,4728.20512821,4563.07692308,4611.28205128,4278.46153846,4547.17948718,4022.05128205,4536.41025641,4684.1025641,4560.0,4691.28205128,4451.28205128,4492.82051282,4344.1025641,4314.87179487,1695.0,1664.0,17.449,0.0,0.0,0.0,0.0,mike,0
78.0,4732.82051282,4568.71794872,4618.46153846,4277.43589744,4552.30769231,4028.20512821,4542.05128205,4689.74358974,4569.74358974,4697.94871795,4457.43589744,4497.43589744,4345.64102564,4321.02564103,1694.0,1663.0,17.457,0.0,0.0,0.0,0.0,mike,0
79.0,4725.12820513,4569.74358974,4611.28205128,4276.92307692,4533.33333333,4020.0,4537.94871795,4683.58974359,4560.51282051,4690.25641026,4444.1025641,4490.25641026,4332.30769231,4311.79487179,1694.0,1664.0,17.465,0.0,0.0,0.0,0.0,mike,0
80.0,4714.87179487,4557.94871795,4601.53846154,4276.92307692,4518.97435897,4011.28205128,4530.76923077,4668.71794872,4540.0,4675.38461538,4429.23076923,4478.97435897,4323.58974359,4297.94871795,1693.0,1662.0,17.473,0.0,0.0,0.0,0.0,mike,0
81.0,4716.92307692,4555.8974359,4600.0,4276.92307692,4533.84615385,4016.92307692,4533.33333333,4667.69230769,4540.0,4672.30769231,4431.28205128,4481.02564103,4325.12820513,4300.51282051,1693.0,1664.0,17.481,0.0,0.0,0.0,0.0,mike,0
82.0,4720.0,4566.15384615,4604.1025641,4277.43589744,4553.33333333,4028.20512821,4540.0,4679.48717949,4554.35897436,4676.92307692,4438.97435897,4491.28205128,4328.20512821,4307.17948718,1694.0,1663.0,17.49,0.0,0.0,0.0,0.0,mike,0
83.0,4717.94871795,4569.23076923,4607.69230769,4276.92307692,4555.38461538,4031.79487179,4542.05128205,4682.56410256,4553.84615385,4680.0,4442.56410256,4489.74358974,4328.20512821,4301.53846154,1693.0,1663.0,17.497,0.0,0.0,0.0,0.0,mike,0
84.0,4717.94871795,4560.0,4604.61538462,4275.8974359,4546.15384615,4024.61538462,4539.48717949,4674.35897436,4540.51282051,4678.46153846,4439.48717949,4477.94871795,4326.15384615,4296.92307692,1694.0,1663.0,17.505,0.0,0.0,0.0,0.0,mike,0
85.0,4716.92307692,4553.84615385,4600.0,4274.35897436,4539.48717949,4018.97435897,4537.43589744,4666.15384615,4532.30769231,4673.84615385,4430.76923077,4473.33333333,4323.58974359,4297.94871795,1693.0,1662.0,17.513,0.0,0.0,0.0,0.0,mike,0
86.0,4716.92307692,4560.51282051,4602.56410256,4275.8974359,4540.0,4025.64102564,4538.46153846,4666.66666667,4532.82051282,4674.87179487,4428.71794872,4474.87179487,4324.61538462,4295.8974359,1694.0,1663.0,17.521,0.0,0.0,0.0,0.0,mike,0
87.0,4719.48717949,4567.69230769,4605.64102564,4281.02564103,4540.0,4031.28205128,4540.51282051,4671.79487179,4533.84615385,4677.94871795,4430.25641026,4476.41025641,4323.07692308,4295.38461538,1694.0,1664.0,17.529,0.0,0.0,0.0,0.0,mike,0
88.0,4714.87179487,4562.05128205,4603.07692308,4279.48717949,4540.51282051,4027.69230769,4540.0,4670.76923077,4534.87179487,4674.35897436,4427.17948718,4476.41025641,4316.92307692,4296.41025641,1694.0,1663.0,17.537,0.0,0.0,0.0,0.0,mike,0
89.0,4702.56410256,4552.30769231,4598.97435897,4267.69230769,4541.53846154,4025.64102564,4540.0,4668.20512821,4538.97435897,4670.76923077,4424.61538462,4474.87179487,4315.8974359,4292.82051282,1694.0,1663.0,17.544,0.0,0.0,0.0,0.0,mike,0
90.0,4697.43589744,4546.66666667,4594.87179487,4259.48717949,4541.02564103,4028.20512821,4545.64102564,4674.35897436,4545.12820513,4675.38461538,4424.61538462,4473.33333333,4315.8974359,4289.23076923,1694.0,1663.0,17.552,0.0,0.0,0.0,0.0,mike,0
91.0,4708.20512821,4551.79487179,4600.0,4269.23076923,4543.58974359,4030.76923077,4552.82051282,4690.25641026,4558.46153846,4686.66666667,4431.79487179,4481.53846154,4321.53846154,4294.87179487,1695.0,1662.0,17.56,0.0,0.0,0.0,0.0,mike,0
92.0,4721.53846154,4565.12820513,4616.92307692,4282.05128205,4548.71794872,4041.02564103,4565.12820513,4703.58974359,4574.35897436,4697.43589744,4444.61538462,4494.35897436,4335.38461538,4308.71794872,1694.0,1663.0,17.568,0.0,0.0,0.0,0.0,mike,0
93.0,4722.05128205,4564.1025641,4620.0,4282.05128205,4546.15384615,4051.28205128,4572.30769231,4701.02564103,4572.30769231,4697.43589744,4444.61538462,4493.84615385,4334.35897436,4310.25641026,1695.0,1661.0,17.576,0.0,0.0,0.0,0.0,mike,0
94.0,4715.38461538,4551.79487179,4612.30769231,4276.41025641,4542.05128205,4044.1025641,4563.58974359,4691.28205128,4557.94871795,4687.69230769,4433.84615385,4487.69230769,4318.46153846,4297.94871795,1694.0,1661.0,17.583,0.0,0.0,0.0,0.0,mike,0
95.0,4717.43589744,4553.84615385,4615.38461538,4277.94871795,4545.64102564,4034.87179487,4553.33333333,4688.71794872,4553.33333333,4681.02564103,4431.28205128,4488.20512821,4314.87179487,4291.79487179,1695.0,1661.0,17.591,0.0,0.0,0.0,0.0,mike,0
96.0,4721.53846154,4562.05128205,4617.43589744,4281.02564103,4552.30769231,4035.8974359,4553.84615385,4687.69230769,4556.41025641,4678.46153846,4433.84615385,4490.76923077,4323.58974359,4295.8974359,1694.0,1661.0,17.599,0.0,0.0,0.0,0.0,mike,0
97.0,4720.51282051,4565.12820513,4613.33333333,4278.46153846,4555.38461538,4037.43589744,4555.8974359,4685.64102564,4555.38461538,4677.94871795,4436.92307692,4491.28205128,4326.15384615,4305.12820513,1694.0,1662.0,17.607,0.0,0.0,0.0,0.0,mike,0
98.0,4720.51282051,4566.66666667,4617.43589744,4278.97435897,4550.25641026,4037.94871795,4554.35897436,4687.69230769,4554.35897436,4683.07692308,4443.58974359,4493.33333333,4327.69230769,4311.28205128,1694.0,1661.0,17.615,0.0,0.0,0.0,0.0,mike,0
99.0,4720.51282051,4560.0,4615.8974359,4280.0,4545.12820513,4038.46153846,4553.33333333,4688.71794872,4555.38461538,4687.69230769,4442.56410256,4493.84615385,4329.23076923,4303.07692308,1694.0,1662.0,17.623,0.0,0.0,0.0,0.0,mike,0
100.0,4716.41025641,4553.33333333,4605.12820513,4276.92307692,4547.17948718,4034.35897436,4551.28205128,4686.66666667,4554.35897436,4685.64102564,4433.33333333,4489.74358974,4326.15384615,4296.41025641,1693.0,1661.0,17.63,0.0,0.0,0.0,0.0,mike,0
101.0,4715.8974359,4557.94871795,4608.71794872,4277.43589744,4553.33333333,4033.33333333,4551.79487179,4685.12820513,4554.35897436,4686.15384615,4436.41025641,4488.20512821,4326.15384615,4302.56410256,1694.0,1663.0,17.638,0.0,0.0,0.0,0.0,mike,0
102.0,4718.97435897,4557.94871795,4615.38461538,4280.0,4554.35897436,4037.43589744,4550.25641026,4683.07692308,4558.97435897,4687.17948718,4442.56410256,4489.74358974,4328.71794872,4303.07692308,1694.0,1662.0,17.646,0.0,0.0,0.0,0.0,mike,0
103.0,4713.84615385,4552.82051282,4605.12820513,4271.79487179,4536.92307692,4029.74358974,4541.02564103,4678.46153846,4554.87179487,4680.0,4434.35897436,4484.61538462,4323.07692308,4294.35897436,1694.0,1662.0,17.654,0.0,0.0,0.0,0.0,mike,0
104.0,4703.07692308,4553.33333333,4595.8974359,4261.02564103,4525.64102564,4018.46153846,4530.25641026,4671.79487179,4541.02564103,4672.82051282,4424.61538462,4473.84615385,4311.28205128,4292.30769231,1693.0,1663.0,17.662,0.0,0.0,0.0,0.0,mike,0
105.0,4701.02564103,4553.33333333,4600.0,4267.17948718,4544.1025641,4025.64102564,4529.74358974,4670.76923077,4540.51282051,4670.76923077,4424.61538462,4473.33333333,4307.17948718,4292.82051282,1694.0,1663.0,17.669,0.0,0.0,0.0,0.0,mike,0
106.0,4708.71794872,4555.8974359,4606.66666667,4280.0,4557.43589744,4039.48717949,4536.92307692,4675.8974359,4552.30769231,4673.84615385,4431.79487179,4483.07692308,4315.38461538,4293.84615385,1693.0,1663.0,17.677,0.0,0.0,0.0,0.0,mike,0
107.0,4721.02564103,4565.64102564,4613.84615385,4281.02564103,4552.30769231,4041.02564103,4541.02564103,4682.05128205,4555.8974359,4681.53846154,4439.48717949,4492.82051282,4328.20512821,4304.1025641,1693.0,1662.0,17.685,0.0,0.0,0.0,0.0,mike,0
108.0,4732.30769231,4572.82051282,4618.46153846,4278.97435897,4548.20512821,4034.35897436,4539.48717949,4686.66666667,4558.46153846,4690.25641026,4446.15384615,4499.48717949,4335.8974359,4314.35897436,1693.0,1662.0,17.693,0.0,0.0,0.0,0.0,mike,0
109.0,4729.74358974,4567.69230769,4613.33333333,4278.97435897,4545.64102564,4030.76923077,4535.8974359,4689.23076923,4569.74358974,4694.35897436,4446.66666667,4497.94871795,4336.41025641,4313.33333333,1693.0,1663.0,17.701,0.0,0.0,0.0,0.0,mike,0
110.0,4719.48717949,4556.41025641,4607.17948718,4276.41025641,4536.92307692,4028.20512821,4535.38461538,4692.82051282,4573.84615385,4696.92307692,4443.07692308,4490.76923077,4334.35897436,4307.69230769,1693.0,1661.0,17.709,0.0,0.0,0.0,0.0,mike,0
111.0,4716.92307692,4557.43589744,4608.71794872,4276.41025641,4534.35897436,4026.66666667,4536.41025641,4700.0,4570.76923077,4698.97435897,4446.66666667,4495.38461538,4338.97435897,4309.74358974,1692.0,1663.0,17.716,0.0,0.0,0.0,0.0,mike,0
112.0,4720.0,4568.20512821,4615.38461538,4282.05128205,4544.1025641,4031.28205128,4539.48717949,4700.0,4571.28205128,4695.8974359,4456.41025641,4505.12820513,4343.58974359,4315.8974359,1693.0,1662.0,17.724,0.0,0.0,0.0,0.0,mike,0
113.0,4723.07692308,4571.28205128,4618.46153846,4283.58974359,4551.28205128,4036.41025641,4542.05128205,4688.71794872,4567.17948718,4688.71794872,4456.92307692,4501.53846154,4338.97435897,4316.41025641,1691.0,1663.0,17.732,0.0,0.0,0.0,0.0,mike,0
114.0,4724.61538462,4567.69230769,4617.43589744,4281.53846154,4546.66666667,4030.76923077,4536.41025641,4673.84615385,4552.82051282,4681.02564103,4444.1025641,4489.23076923,4329.74358974,4311.28205128,1693.0,1663.0,17.74,0.0,0.0,0.0,0.0,mike,0
115.0,4722.56410256,4569.23076923,4615.38461538,4281.02564103,4540.0,4021.53846154,4526.66666667,4664.1025641,4538.46153846,4672.82051282,4432.30769231,4480.51282051,4320.51282051,4305.64102564,1693.0,1663.0,17.748,0.0,0.0,0.0,0.0,mike,0
116.0,4718.97435897,4569.23076923,4607.69230769,4278.46153846,4538.97435897,4018.46153846,4518.97435897,4660.0,4535.38461538,4666.66666667,4427.17948718,4474.87179487,4315.8974359,4301.53846154,1693.0,1664.0,17.755,0.0,0.0,0.0,0.0,mike,0
117.0,4720.0,4567.17948718,4607.17948718,4279.48717949,4541.02564103,4025.64102564,4525.64102564,4667.17948718,4545.64102564,4674.35897436,4434.87179487,4481.53846154,4325.64102564,4305.64102564,1693.0,1664.0,17.763,0.0,0.0,0.0,0.0,mike,0
118.0,4723.07692308,4571.79487179,4613.33333333,4281.02564103,4542.56410256,4031.28205128,4535.38461538,4678.46153846,4558.46153846,4690.25641026,4448.71794872,4494.35897436,4340.51282051,4317.43589744,1693.0,1663.0,17.771,0.0,0.0,0.0,0.0,mike,0
119.0,4715.38461538,4563.58974359,4608.20512821,4275.38461538,4537.43589744,4024.1025641,4528.20512821,4676.41025641,4556.92307692,4687.17948718,4445.12820513,4489.23076923,4335.38461538,4316.92307692,1693.0,1663.0,17.779,0.0,0.0,0.0,0.0,mike,0
120.0,4699.48717949,4543.07692308,4591.79487179,4262.05128205,4531.79487179,4017.43589744,4520.0,4665.64102564,4545.12820513,4670.76923077,4429.74358974,4475.38461538,4317.43589744,4298.46153846,1694.0,1664.0,17.787,0.0,0.0,0.0,0.0,mike,0
121.0,4688.71794872,4530.76923077,4581.02564103,4248.20512821,4529.74358974,4018.46153846,4522.05128205,4662.05128205,4536.92307692,4661.02564103,4417.94871795,4470.25641026,4302.56410256,4280.0,1693.0,1662.0,17.795,0.0,0.0,0.0,0.0,mike,0
122.0,4690.25641026,4534.35897436,4585.64102564,4250.76923077,4530.76923077,4018.97435897,4523.58974359,4665.64102564,4536.92307692,4657.43589744,4413.84615385,4468.71794872,4297.43589744,4276.41025641,1693.0,1663.0,17.802,0.0,0.0,0.0,0.0,mike,0
123.0,4704.61538462,4547.17948718,4603.07692308,4269.23076923,4530.25641026,4021.53846154,4526.66666667,4673.33333333,4546.15384615,4665.64102564,4423.07692308,4475.8974359,4309.23076923,4293.84615385,1695.0,1662.0,17.81,0.0,0.0,0.0,0.0,mike,0
124.0,4730.76923077,4564.61538462,4620.51282051,4286.66666667,4523.58974359,4027.69230769,4537.94871795,4690.76923077,4564.1025641,4684.61538462,4443.58974359,4493.33333333,4331.79487179,4316.92307692,1694.0,1663.0,17.818,0.0,0.0,0.0,0.0,mike,0
125.0,4740.0,4573.84615385,4622.56410256,4289.74358974,4529.74358974,4029.23076923,4542.05128205,4700.51282051,4573.33333333,4692.82051282,4454.35897436,4498.46153846,4343.07692308,4322.56410256,1695.0,1663.0,17.826,0.0,0.0,0.0,0.0,mike,0
126.0,4719.48717949,4563.07692308,4611.28205128,4280.51282051,4554.87179487,4033.33333333,4538.46153846,4693.33333333,4564.1025641,4685.64102564,4448.20512821,4490.25641026,4336.92307692,4313.84615385,1694.0,1662.0,17.834,0.0,0.0,0.0,0.0,mike,0
127.0,4707.17948718,4551.28205128,4603.07692308,4270.76923077,4560.51282051,4043.07692308,4541.02564103,4687.17948718,4555.38461538,4684.61538462,4444.1025641,4490.76923077,4333.33333333,4308.71794872,1695.0,1663.0,17.841,0.0,0.0,0.0,0.0,mike,0
128.0,4708.71794872,4551.28205128,4600.51282051,4266.15384615,4541.02564103,4038.97435897,4536.41025641,4685.64102564,4556.41025641,4688.71794872,4444.61538462,4487.17948718,4331.28205128,4306.15384615,1694.0,1661.0,17.849,0.0,0.0,0.0,0.0,mike,0
0.0,4707.69230769,4552.30769231,4602.05128205,4264.61538462,4535.8974359,4023.58974359,4528.20512821,4684.1025641,4556.92307692,4686.15384615,4443.58974359,4481.02564103,4328.71794872,4307.69230769,1695.0,1660.0,17.857,0.0,0.0,0.0,0.0,mike,0
1.0,4710.76923077,4553.84615385,4606.15384615,4266.66666667,4538.46153846,4018.46153846,4534.87179487,4684.61538462,4555.38461538,4687.17948718,4445.64102564,4488.20512821,4333.33333333,4312.30769231,1694.0,1659.0,17.865,0.0,0.0,0.0,0.0,mike,0
2.0,4714.87179487,4558.46153846,4609.23076923,4273.33333333,4534.35897436,4025.12820513,4543.58974359,4682.56410256,4555.8974359,4688.20512821,4447.17948718,4490.76923077,4335.8974359,4307.69230769,1695.0,1661.0,17.873,0.0,0.0,0.0,0.0,mike,0
3.0,4709.23076923,4556.92307692,4602.05128205,4273.84615385,4540.0,4030.25641026,4535.38461538,4673.84615385,4551.28205128,4675.38461538,4435.38461538,4475.8974359,4323.07692308,4294.35897436,1694.0,1660.0,17.881,0.0,0.0,0.0,0.0,mike,0
4.0,4701.53846154,4549.74358974,4591.28205128,4265.12820513,4538.46153846,4025.64102564,4521.02564103,4666.66666667,4542.56410256,4667.17948718,4421.53846154,4464.1025641,4309.23076923,4287.17948718,1693.0,1662.0,17.888,0.0,0.0,0.0,0.0,mike,0
5.0,4700.0,4551.28205128,4593.84615385,4263.07692308,4536.92307692,4029.23076923,4523.07692308,4671.28205128,4547.69230769,4677.94871795,4430.76923077,4468.20512821,4317.94871795,4291.79487179,1694.0,1662.0,17.896,0.0,0.0,0.0,0.0,mike,0
6.0,4702.56410256,4556.92307692,4596.92307692,4270.76923077,4545.64102564,4038.97435897,4531.28205128,4678.46153846,4560.51282051,4690.76923077,4443.58974359,4475.38461538,4330.76923077,4298.46153846,1692.0,1662.0,17.904,0.0,0.0,0.0,0.0,mike,0
7.0,4701.53846154,4552.82051282,4587.69230769,4270.25641026,4533.84615385,4025.64102564,4523.58974359,4677.94871795,4558.46153846,4688.20512821,4435.8974359,4474.35897436,4327.17948718,4294.35897436,1693.0,1662.0,17.912,0.0,0.0,0.0,0.0,mike,0
8.0,4694.87179487,4547.17948718,4584.61538462,4262.05128205,4516.41025641,4008.71794872,4514.87179487,4675.8974359,4550.76923077,4681.02564103,4428.71794872,4471.28205128,4321.02564103,4286.66666667,1692.0,1662.0,17.92,0.0,0.0,0.0,0.0,mike,0
9.0,4702.56410256,4552.82051282,4601.02564103,4267.69230769,4532.30769231,4022.56410256,4530.25641026,4686.66666667,4562.05128205,4689.23076923,4442.05128205,4481.02564103,4331.79487179,4301.02564103,1691.0,1663.0,17.928,0.0,0.0,0.0,0.0,mike,0
10.0,4718.97435897,4563.07692308,4614.87179487,4281.53846154,4550.25641026,4035.38461538,4543.58974359,4693.84615385,4571.79487179,4698.97435897,4453.84615385,4495.38461538,4344.1025641,4319.48717949,1692.0,1663.0,17.935,0.0,0.0,0.0,0.0,mike,0
11.0,4718.97435897,4564.1025641,4610.25641026,4280.0,4538.97435897,4022.56410256,4529.74358974,4682.05128205,4560.51282051,4687.17948718,4448.20512821,4493.84615385,4339.48717949,4315.38461538,1692.0,1665.0,17.943,0.0,0.0,0.0,0.0,mike,0
12.0,4715.8974359,4557.94871795,4602.56410256,4272.82051282,4533.33333333,4020.0,4520.51282051,4669.23076923,4547.69230769,4676.92307692,4442.05128205,4483.58974359,4330.76923077,4310.25641026,1693.0,1665.0,17.951,0.0,0.0,0.0,0.0,mike,0
13.0,4717.94871795,4552.82051282,4603.58974359,4277.43589744,4542.56410256,4033.33333333,4527.17948718,4668.71794872,4544.61538462,4679.48717949,4437.43589744,4478.97435897,4330.25641026,4310.25641026,1693.0,1665.0,17.959,0.0,0.0,0.0,0.0,mike,0
14.0,4708.20512821,4554.35897436,4601.02564103,4275.8974359,4540.51282051,4028.71794872,4525.12820513,4665.12820513,4539.48717949,4670.76923077,4428.20512821,4472.30769231,4322.05128205,4299.48717949,1693.0,1665.0,17.967,0.0,0.0,0.0,0.0,mike,0
15.0,4694.87179487,4553.84615385,4588.71794872,4264.1025641,4533.84615385,4017.43589744,4516.41025641,4655.8974359,4531.28205128,4657.43589744,4422.05128205,4458.97435897,4308.71794872,4287.69230769,1693.0,1665.0,17.974,0.0,0.0,0.0,0.0,mike,0
16.0,4697.43589744,4551.79487179,4587.17948718,4261.02564103,4537.94871795,4023.58974359,4518.46153846,4661.53846154,4536.92307692,4664.61538462,4424.1025641,4458.97435897,4313.84615385,4293.33333333,1694.0,1664.0,17.982,0.0,0.0,0.0,0.0,mike,0
17.0,4711.79487179,4557.43589744,4603.07692308,4272.30769231,4541.53846154,4031.28205128,4530.25641026,4674.35897436,4552.82051282,4678.97435897,4434.87179487,4474.35897436,4327.17948718,4305.64102564,1692.0,1665.0,17.99,0.0,0.0,0.0,0.0,mike,0
18.0,4721.53846154,4562.05128205,4611.28205128,4282.05128205,4538.97435897,4027.17948718,4533.33333333,4674.35897436,4555.38461538,4681.53846154,4438.97435897,4481.02564103,4329.23076923,4306.66666667,1694.0,1665.0,17.998,0.0,0.0,0.0,0.0,mike,0
19.0,4713.84615385,4558.46153846,4604.1025641,4275.8974359,4536.41025641,4022.05128205,4526.15384615,4664.1025641,4541.53846154,4674.35897436,4429.74358974,4469.74358974,4323.07692308,4297.94871795,1694.0,1663.0,18.006,0.0,0.0,0.0,0.0,mike,0
20.0,4703.07692308,4553.84615385,4597.94871795,4266.15384615,4527.69230769,4018.46153846,4529.74358974,4657.94871795,4533.84615385,4669.74358974,4425.12820513,4460.0,4321.53846154,4293.33333333,1693.0,1665.0,18.014,0.0,0.0,0.0,0.0,mike,0
21.0,4702.56410256,4552.82051282,4592.82051282,4265.64102564,4522.05128205,4020.0,4540.51282051,4661.02564103,4538.97435897,4673.84615385,4429.74358974,4460.51282051,4324.1025641,4295.38461538,1694.0,1663.0,18.021,0.0,0.0,0.0,0.0,mike,0
22.0,4697.43589744,4550.76923077,4585.12820513,4265.64102564,4533.84615385,4027.69230769,4538.97435897,4663.07692308,4539.48717949,4673.84615385,4427.17948718,4460.51282051,4325.12820513,4291.28205128,1694.0,1662.0,18.029,0.0,0.0,0.0,0.0,mike,0
23.0,4690.76923077,4550.76923077,4580.0,4262.56410256,4541.02564103,4027.69230769,4535.8974359,4663.07692308,4538.46153846,4669.74358974,4424.61538462,4460.51282051,4325.12820513,4292.82051282,1694.0,1661.0,18.037,0.0,0.0,0.0,0.0,mike,0
24.0,4696.41025641,4553.33333333,4583.07692308,4263.58974359,4535.8974359,4017.94871795,4534.87179487,4666.15384615,4541.53846154,4674.87179487,4432.82051282,4464.61538462,4327.17948718,4302.05128205,1693.0,1661.0,18.045,0.0,0.0,0.0,0.0,mike,0
25.0,4699.48717949,4551.79487179,4587.17948718,4265.64102564,4534.35897436,4018.46153846,4526.15384615,4660.0,4541.53846154,4676.41025641,4433.84615385,4464.1025641,4326.66666667,4298.97435897,1694.0,1662.0,18.053,0.0,0.0,0.0,0.0,mike,0
26.0,4695.8974359,4549.74358974,4584.61538462,4260.0,4534.87179487,4022.05128205,4524.1025641,4645.64102564,4535.8974359,4668.20512821,4425.64102564,4461.02564103,4320.0,4291.79487179,1693.0,1661.0,18.06,0.0,0.0,0.0,0.0,mike,0
27.0,4701.53846154,4552.30769231,4587.17948718,4261.53846154,4536.92307692,4020.0,4536.92307692,4650.25641026,4541.02564103,4671.79487179,4429.74358974,4469.74358974,4323.58974359,4296.41025641,1694.0,1661.0,18.068,0.0,0.0,0.0,0.0,mike,0
28.0,4708.20512821,4554.35897436,4598.97435897,4272.30769231,4533.33333333,4023.07692308,4550.25641026,4670.25641026,4554.35897436,4686.15384615,4442.05128205,4477.43589744,4336.41025641,4304.1025641,1693.0,1661.0,18.076,0.0,0.0,0.0,0.0,mike,0
29.0,4705.64102564,4551.28205128,4603.58974359,4271.79487179,4525.64102564,4029.23076923,4554.35897436,4678.97435897,4556.92307692,4688.71794872,4443.58974359,4476.41025641,4337.43589744,4305.64102564,1693.0,1660.0,18.084,0.0,0.0,0.0,0.0,mike,0
30.0,4704.61538462,4550.76923077,4599.48717949,4265.64102564,4536.92307692,4031.79487179,4553.84615385,4683.07692308,4556.92307692,4688.20512821,4442.05128205,4482.56410256,4335.8974359,4308.71794872,1692.0,1660.0,18.092,0.0,0.0,0.0,0.0,mike,0
31.0,4709.23076923,4554.35897436,4602.56410256,4271.79487179,4547.17948718,4033.84615385,4552.82051282,4691.28205128,4568.20512821,4698.97435897,4447.17948718,4492.30769231,4342.05128205,4313.33333333,1693.0,1660.0,18.1,0.0,0.0,0.0,0.0,mike,0
32.0,4716.92307692,4555.8974359,4607.69230769,4281.02564103,4541.02564103,4036.92307692,4555.38461538,4692.82051282,4573.33333333,4706.15384615,4451.79487179,4494.35897436,4347.17948718,4313.84615385,1692.0,1661.0,18.107,0.0,0.0,0.0,0.0,mike,0
33.0,4716.92307692,4555.8974359,4605.12820513,4272.82051282,4543.07692308,4035.8974359,4555.38461538,4684.61538462,4561.53846154,4694.87179487,4446.66666667,4489.23076923,4341.53846154,4310.25641026,1693.0,1661.0,18.115,0.0,0.0,0.0,0.0,mike,0
34.0,4706.15384615,4555.8974359,4601.53846154,4266.66666667,4544.1025641,4029.23076923,4546.66666667,4675.8974359,4551.79487179,4682.05128205,4438.97435897,4477.94871795,4331.28205128,4308.20512821,1692.0,1662.0,18.123,0.0,0.0,0.0,0.0,mike,0
35.0,4702.05128205,4555.8974359,4600.0,4274.35897436,4531.28205128,4028.20512821,4539.48717949,4670.25641026,4551.79487179,4682.56410256,4433.33333333,4471.28205128,4328.71794872,4307.69230769,1693.0,1662.0,18.131,0.0,0.0,0.0,0.0,mike,0
36.0,4708.71794872,4556.41025641,4600.51282051,4274.87179487,4540.0,4031.79487179,4541.02564103,4671.28205128,4555.8974359,4688.20512821,4431.79487179,4473.84615385,4330.25641026,4305.12820513,1692.0,1661.0,18.139,0.0,0.0,0.0,0.0,mike,0
37.0,4707.69230769,4553.84615385,4601.02564103,4264.61538462,4556.41025641,4026.15384615,4540.51282051,4675.38461538,4557.43589744,4686.15384615,4433.33333333,4475.8974359,4328.71794872,4304.61538462,1693.0,1662.0,18.146,0.0,0.0,0.0,0.0,mike,0
38.0,4696.92307692,4550.25641026,4598.46153846,4263.07692308,4538.97435897,4016.41025641,4536.41025641,4678.46153846,4553.33333333,4681.02564103,4431.79487179,4472.82051282,4324.61538462,4301.53846154,1693.0,1661.0,18.154,0.0,0.0,0.0,0.0,mike,0
39.0,4698.97435897,4549.74358974,4599.48717949,4269.74358974,4527.69230769,4023.07692308,4544.1025641,4683.07692308,4551.79487179,4683.07692308,4433.33333333,4476.41025641,4327.69230769,4298.46153846,1693.0,1662.0,18.162,0.0,0.0,0.0,0.0,mike,0
40.0,4713.33333333,4555.38461538,4611.28205128,4275.8974359,4546.66666667,4037.94871795,4562.05128205,4692.82051282,4560.51282051,4690.25641026,4442.05128205,4487.69230769,4334.87179487,4307.17948718,1694.0,1661.0,18.17,0.0,0.0,0.0,0.0,mike,0
41.0,4724.61538462,4566.66666667,4623.58974359,4287.69230769,4549.23076923,4043.58974359,4571.79487179,4699.48717949,4571.79487179,4696.92307692,4449.23076923,4495.38461538,4342.05128205,4320.0,1693.0,1662.0,18.178,0.0,0.0,0.0,0.0,mike,0
42.0,4727.17948718,4572.30769231,4626.15384615,4291.79487179,4539.48717949,4044.61538462,4566.66666667,4696.41025641,4569.74358974,4699.48717949,4449.23076923,4494.87179487,4344.61538462,4321.02564103,1694.0,1662.0,18.186,0.0,0.0,0.0,0.0,mike,0
43.0,4722.05128205,4570.25641026,4616.92307692,4283.58974359,4548.20512821,4044.61538462,4557.94871795,4688.20512821,4558.97435897,4695.8974359,4442.05128205,4486.66666667,4336.41025641,4313.33333333,1694.0,1663.0,18.193,0.0,0.0,0.0,0.0,mike,0
44.0,4708.71794872,4567.17948718,4605.64102564,4279.48717949,4552.82051282,4037.43589744,4551.28205128,4682.56410256,4554.35897436,4688.71794872,4434.35897436,4478.97435897,4327.17948718,4303.07692308,1695.0,1663.0,18.201,0.0,0.0,0.0,0.0,mike,0
45.0,4695.38461538,4560.51282051,4598.46153846,4277.94871795,4539.48717949,4024.61538462,4542.56410256,4677.94871795,4551.28205128,4678.97435897,4429.74358974,4473.84615385,4323.07692308,4294.87179487,1694.0,1662.0,18.209,0.0,0.0,0.0,0.0,mike,0
46.0,4695.8974359,4554.35897436,4593.33333333,4269.74358974,4537.43589744,4025.64102564,4535.8974359,4670.76923077,4544.61538462,4671.79487179,4426.15384615,4466.66666667,4320.0,4294.35897436,1695.0,1663.0,18.217,0.0,0.0,0.0,0.0,mike,0
47.0,4702.05128205,4555.8974359,4593.84615385,4268.71794872,4550.25641026,4035.38461538,4538.97435897,4672.82051282,4547.17948718,4674.87179487,4429.74358974,4466.15384615,4323.07692308,4298.46153846,1695.0,1662.0,18.225,0.0,0.0,0.0,0.0,mike,0
48.0,4701.53846154,4561.02564103,4598.46153846,4278.97435897,4553.84615385,4033.33333333,4543.58974359,4682.05128205,4555.8974359,4686.15384615,4436.41025641,4474.35897436,4331.79487179,4300.0,1695.0,1663.0,18.232,0.0,0.0,0.0,0.0,mike,0
49.0,4700.51282051,4562.05128205,4602.05128205,4280.51282051,4542.56410256,4025.12820513,4546.66666667,4683.58974359,4556.41025641,4690.25641026,4434.35897436,4477.94871795,4331.28205128,4296.92307692,1695.0,1661.0,18.24,0.0,0.0,0.0,0.0,mike,0
50.0,4708.20512821,4564.1025641,4608.71794872,4277.43589744,4530.76923077,4026.15384615,4550.25641026,4680.0,4551.79487179,4686.15384615,4431.28205128,4474.87179487,4326.66666667,4297.94871795,1694.0,1662.0,18.248,0.0,0.0,0.0,0.0,mike,0
51.0,4722.56410256,4568.71794872,4617.43589744,4283.58974359,4537.94871795,4036.41025641,4554.87179487,4687.69230769,4557.43589744,4688.20512821,4444.1025641,4486.15384615,4334.87179487,4307.17948718,1696.0,1662.0,18.256,0.0,0.0,0.0,0.0,mike,0
52.0,4731.28205128,4573.84615385,4623.07692308,4286.66666667,4556.41025641,4045.12820513,4562.56410256,4703.58974359,4567.17948718,4699.48717949,4460.0,4503.58974359,4348.71794872,4322.56410256,1694.0,1662.0,18.264,0.0,0.0,0.0,0.0,mike,0
53.0,4726.15384615,4571.28205128,4620.51282051,4283.07692308,4553.84615385,4041.53846154,4563.58974359,4707.69230769,4572.82051282,4700.51282051,4457.43589744,4502.05128205,4348.20512821,4328.20512821,1695.0,1663.0,18.272,0.0,0.0,0.0,0.0,mike,0
54.0,4710.76923077,4557.94871795,4610.25641026,4275.8974359,4536.41025641,4030.25641026,4556.92307692,4700.51282051,4569.74358974,4689.23076923,4445.12820513,4491.28205128,4336.92307692,4317.94871795,1694.0,1662.0,18.279,0.0,0.0,0.0,0.0,mike,0
55.0,4703.58974359,4550.25641026,4601.53846154,4268.71794872,4536.41025641,4030.76923077,4555.8974359,4694.35897436,4559.48717949,4684.61538462,4441.02564103,4488.20512821,4332.30769231,4309.23076923,1695.0,1663.0,18.287,0.0,0.0,0.0,0.0,mike,0
56.0,4705.64102564,4550.76923077,4601.53846154,4270.76923077,4540.51282051,4037.94871795,4557.43589744,4689.74358974,4554.87179487,4689.74358974,4443.58974359,4490.76923077,4335.38461538,4310.25641026,1693.0,1661.0,18.295,0.0,0.0,0.0,0.0,mike,0
57.0,4705.12820513,4557.94871795,4604.61538462,4276.92307692,4538.97435897,4036.92307692,4554.87179487,4681.02564103,4553.84615385,4687.69230769,4443.07692308,4490.25641026,4335.8974359,4311.28205128,1694.0,1662.0,18.303,0.0,0.0,0.0,0.0,mike,0
58.0,4708.71794872,4567.69230769,4609.23076923,4279.48717949,4546.15384615,4032.30769231,4551.28205128,4674.87179487,4546.15384615,4678.46153846,4442.56410256,4490.76923077,4336.92307692,4315.38461538,1693.0,1661.0,18.311,0.0,0.0,0.0,0.0,mike,0
59.0,4715.38461538,4570.25641026,4613.84615385,4280.51282051,4551.28205128,4028.71794872,4544.1025641,4671.79487179,4542.56410256,4679.48717949,4444.61538462,4491.28205128,4337.43589744,4320.0,1693.0,1662.0,18.318,0.0,0.0,0.0,0.0,mike,0
60.0,4718.97435897,4568.71794872,4615.38461538,4281.53846154,4547.17948718,4024.1025641,4535.8974359,4672.30769231,4551.28205128,4686.15384615,4441.53846154,4488.20512821,4333.33333333,4313.33333333,1693.0,1661.0,18.326,0.0,0.0,0.0,0.0,mike,0
61.0,4717.94871795,4570.76923077,4615.8974359,4283.07692308,4551.28205128,4026.66666667,4542.56410256,4684.1025641,4558.97435897,4689.74358974,4442.05128205,4490.76923077,4333.84615385,4311.28205128,1692.0,1663.0,18.334,0.0,0.0,0.0,0.0,mike,0
62.0,4709.23076923,4564.1025641,4608.71794872,4280.51282051,4555.38461538,4034.35897436,4552.82051282,4691.28205128,4558.46153846,4687.17948718,4443.58974359,4488.20512821,4334.87179487,4311.28205128,1693.0,1661.0,18.342,0.0,0.0,0.0,0.0,mike,0
63.0,4699.48717949,4552.30769231,4596.92307692,4271.79487179,4544.61538462,4035.8974359,4554.35897436,4682.05128205,4554.87179487,4680.51282051,4436.41025641,4476.92307692,4327.17948718,4300.51282051,1692.0,1661.0,18.35,0.0,0.0,0.0,0.0,mike,0
64.0,4701.53846154,4553.84615385,4602.05128205,4270.25641026,4534.87179487,4033.84615385,4551.79487179,4679.48717949,4552.30769231,4677.94871795,4430.76923077,4471.79487179,4323.58974359,4300.51282051,1692.0,1662.0,18.358,0.0,0.0,0.0,0.0,mike,0
65.0,4706.15384615,4556.92307692,4608.20512821,4277.94871795,4535.8974359,4033.33333333,4554.35897436,4685.64102564,4551.79487179,4683.07692308,4437.43589744,4476.41025641,4328.71794872,4310.25641026,1692.0,1661.0,18.365,0.0,0.0,0.0,0.0,mike,0
66.0,4707.17948718,4555.8974359,4605.64102564,4279.48717949,4544.1025641,4037.43589744,4563.07692308,4687.17948718,4554.35897436,4687.69230769,4444.1025641,4484.1025641,4334.35897436,4312.30769231,1693.0,1662.0,18.373,0.0,0.0,0.0,0.0,mike,0
67.0,4708.20512821,4560.0,4608.20512821,4278.46153846,4554.87179487,4042.05128205,4565.12820513,4691.28205128,4560.0,4687.17948718,4445.12820513,4491.79487179,4334.35897436,4311.79487179,1693.0,1662.0,18.381,0.0,0.0,0.0,0.0,mike,0
68.0,4706.15384615,4564.1025641,4613.33333333,4280.51282051,4553.33333333,4038.46153846,4555.8974359,4694.35897436,4562.56410256,4686.15384615,4443.58974359,4491.79487179,4333.84615385,4312.30769231,1692.0,1662.0,18.389,0.0,0.0,0.0,0.0,mike,0
69.0,4712.82051282,4567.17948718,4614.87179487,4281.53846154,4551.28205128,4034.87179487,4551.79487179,4690.25641026,4557.94871795,4688.20512821,4443.58974359,4489.74358974,4334.87179487,4314.87179487,1692.0,1661.0,18.397,0.0,0.0,0.0,0.0,mike,0
70.0,4719.48717949,4571.79487179,4619.48717949,4281.53846154,4556.92307692,4034.35897436,4554.35897436,4684.61538462,4555.38461538,4688.20512821,4444.1025641,4492.30769231,4336.41025641,4318.46153846,1693.0,1662.0,18.405,0.0,0.0,0.0,0.0,mike,0
71.0,4710.25641026,4569.74358974,4616.41025641,4281.02564103,4552.82051282,4032.30769231,4551.28205128,4682.05128205,4556.41025641,4683.58974359,4444.1025641,4490.76923077,4335.38461538,4317.43589744,1693.0,1662.0,18.412,0.0,0.0,0.0,0.0,mike,0
72.0,4703.58974359,4566.15384615,4604.1025641,4278.46153846,4543.58974359,4033.84615385,4551.79487179,4679.48717949,4553.33333333,4679.48717949,4443.07692308,4485.64102564,4332.82051282,4312.30769231,1693.0,1663.0,18.42,0.0,0.0,0.0,0.0,mike,0
73.0,4708.71794872,4569.74358974,4605.12820513,4278.97435897,4546.15384615,4037.94871795,4556.41025641,4677.94871795,4551.28205128,4680.51282051,4443.07692308,4486.66666667,4333.33333333,4313.84615385,1694.0,1662.0,18.428,0.0,0.0,0.0,0.0,mike,0
74.0,4712.30769231,4570.76923077,4616.92307692,4282.05128205,4553.33333333,4036.41025641,4553.33333333,4677.94871795,4554.35897436,4685.12820513,4446.15384615,4489.23076923,4334.87179487,4319.48717949,1692.0,1663.0,18.436,0.0,0.0,0.0,0.0,mike,0
75.0,4715.8974359,4568.71794872,4617.94871795,4284.61538462,4553.84615385,4035.8974359,4552.82051282,4679.48717949,4553.84615385,4685.12820513,4446.66666667,4490.76923077,4335.8974359,4320.51282051,1694.0,1663.0,18.444,0.0,0.0,0.0,0.0,mike,0
76.0,4721.02564103,4569.74358974,4615.38461538,4282.05128205,4545.12820513,4036.41025641,4552.30769231,4681.53846154,4551.79487179,4682.05128205,4445.64102564,4493.33333333,4335.8974359,4318.97435897,1693.0,1662.0,18.451,0.0,0.0,0.0,0.0,mike,0
77.0,4718.97435897,4570.25641026,4616.92307692,4277.94871795,4537.43589744,4029.23076923,4541.53846154,4676.92307692,4550.76923077,4679.48717949,4443.07692308,4492.82051282,4335.38461538,4317.43589744,1694.0,1663.0,18.459,0.0,0.0,0.0,0.0,mike,0
78.0,4716.92307692,4568.71794872,4616.92307692,4276.41025641,4546.15384615,4024.61538462,4538.46153846,4673.84615385,4550.76923077,4678.46153846,4445.12820513,4491.28205128,4336.41025641,4323.58974359,1693.0,1662.0,18.467,0.0,0.0,0.0,0.0,mike,0
79.0,4717.43589744,4566.66666667,4614.87179487,4277.94871795,4557.94871795,4031.79487179,4551.28205128,4681.02564103,4553.33333333,4683.07692308,4455.38461538,4498.97435897,4341.53846154,4333.33333333,1693.0,1662.0,18.475,0.0,0.0,0.0,0.0,mike,0
80.0,4720.0,4566.66666667,4617.94871795,4278.97435897,4549.23076923,4038.46153846,4561.02564103,4688.20512821,4557.94871795,4689.74358974,4457.94871795,4505.64102564,4344.61538462,4336.92307692,1694.0,1661.0,18.483,0.0,0.0,0.0,0.0,mike,0
81.0,4721.53846154,4568.20512821,4620.0,4279.48717949,4533.33333333,4031.79487179,4553.33333333,4682.05128205,4552.30769231,4683.58974359,4447.69230769,4497.43589744,4340.0,4329.23076923,1694.0,1662.0,18.491,0.0,0.0,0.0,0.0,mike,0
82.0,4713.84615385,4563.07692308,4613.33333333,4280.0,4532.30769231,4022.56410256,4541.53846154,4669.74358974,4540.0,4672.30769231,4441.53846154,4487.69230769,4332.82051282,4314.87179487,1694.0,1661.0,18.498,0.0,0.0,0.0,0.0,mike,0
83.0,4705.64102564,4560.0,4607.69230769,4277.94871795,4546.15384615,4027.69230769,4543.58974359,4671.28205128,4541.53846154,4678.46153846,4443.58974359,4489.23076923,4333.84615385,4312.82051282,1693.0,1662.0,18.506,0.0,0.0,0.0,0.0,mike,0
84.0,4706.66666667,4567.69230769,4611.79487179,4276.92307692,4553.33333333,4032.82051282,4551.79487179,4683.58974359,4555.38461538,4689.74358974,4448.20512821,4491.79487179,4339.48717949,4320.51282051,1693.0,1662.0,18.514,0.0,0.0,0.0,0.0,mike,0
85.0,4712.30769231,4568.20512821,4614.87179487,4278.97435897,4543.07692308,4028.71794872,4555.8974359,4690.25641026,4565.12820513,4692.30769231,4453.84615385,4492.30769231,4344.1025641,4319.48717949,1693.0,1663.0,18.522,0.0,0.0,0.0,0.0,mike,0
86.0,4712.30769231,4556.41025641,4606.66666667,4274.35897436,4537.94871795,4026.66666667,4551.28205128,4688.71794872,4566.15384615,4691.79487179,4453.33333333,4493.84615385,4345.12820513,4313.84615385,1693.0,1663.0,18.53,0.0,0.0,0.0,0.0,mike,0
87.0,4704.1025641,4552.30769231,4599.48717949,4267.17948718,4540.51282051,4028.71794872,4540.51282051,4684.61538462,4561.02564103,4689.23076923,4445.64102564,4491.28205128,4336.92307692,4311.79487179,1694.0,1663.0,18.537,0.0,0.0,0.0,0.0,mike,0
88.0,4705.12820513,4559.48717949,4605.64102564,4273.84615385,4538.46153846,4030.25641026,4541.02564103,4678.97435897,4555.8974359,4686.66666667,4445.12820513,4486.15384615,4331.28205128,4311.79487179,1693.0,1663.0,18.545,0.0,0.0,0.0,0.0,mike,0
89.0,4713.84615385,4559.48717949,4613.33333333,4281.02564103,4545.64102564,4036.41025641,4555.38461538,4673.84615385,4554.87179487,4686.15384615,4445.12820513,4481.02564103,4332.82051282,4311.28205128,1693.0,1665.0,18.553,0.0,0.0,0.0,0.0,mike,0
90.0,4710.25641026,4555.38461538,4607.69230769,4275.8974359,4553.33333333,4035.38461538,4553.84615385,4670.76923077,4552.30769231,4678.97435897,4436.92307692,4475.8974359,4328.71794872,4304.61538462,1693.0,1664.0,18.561,0.0,0.0,0.0,0.0,mike,0
91.0,4706.66666667,4558.97435897,4603.07692308,4275.8974359,4541.02564103,4026.66666667,4541.02564103,4669.74358974,4550.25641026,4672.82051282,4436.92307692,4476.41025641,4324.61538462,4302.05128205,1692.0,1665.0,18.569,0.0,0.0,0.0,0.0,mike,0
92.0,4715.38461538,4565.64102564,4610.76923077,4280.0,4533.33333333,4024.1025641,4544.1025641,4674.35897436,4552.82051282,4680.51282051,4442.56410256,4484.1025641,4330.76923077,4311.28205128,1693.0,1664.0,18.577,0.0,0.0,0.0,0.0,mike,0
93.0,4720.51282051,4572.30769231,4617.43589744,4281.02564103,4546.15384615,4027.69230769,4546.66666667,4684.1025641,4557.94871795,4687.69230769,4446.66666667,4490.76923077,4338.46153846,4315.38461538,1692.0,1663.0,18.584,0.0,0.0,0.0,0.0,mike,0
94.0,4720.51282051,4580.51282051,4620.51282051,4287.17948718,4558.46153846,4034.35897436,4543.58974359,4691.28205128,4567.17948718,4690.25641026,4455.38461538,4494.87179487,4343.58974359,4314.87179487,1693.0,1664.0,18.592,0.0,0.0,0.0,0.0,mike,0
95.0,4722.56410256,4576.92307692,4621.53846154,4289.74358974,4553.84615385,4037.43589744,4540.51282051,4687.69230769,4565.64102564,4688.71794872,4456.92307692,4493.84615385,4343.07692308,4317.94871795,1692.0,1663.0,18.6,0.0,0.0,0.0,0.0,mike,0
96.0,4714.35897436,4558.97435897,4609.74358974,4277.94871795,4538.46153846,4024.61538462,4528.20512821,4671.28205128,4548.71794872,4675.38461538,4439.48717949,4483.58974359,4329.74358974,4311.28205128,1693.0,1664.0,18.608,0.0,0.0,0.0,0.0,mike,0
97.0,4702.56410256,4552.82051282,4598.97435897,4266.15384615,4534.87179487,4017.43589744,4520.0,4662.05128205,4536.41025641,4663.58974359,4421.53846154,4471.28205128,4315.8974359,4293.84615385,1693.0,1663.0,18.616,0.0,0.0,0.0,0.0,mike,0
98.0,4698.97435897,4555.38461538,4600.0,4262.56410256,4538.97435897,4025.64102564,4524.1025641,4661.53846154,4529.74358974,4655.8974359,4418.97435897,4461.53846154,4308.20512821,4283.07692308,1692.0,1662.0,18.623,0.0,0.0,0.0,0.0,mike,0
99.0,4699.48717949,4546.66666667,4600.0,4264.1025641,4528.71794872,4027.69230769,4523.07692308,4658.97435897,4527.17948718,4647.69230769,4418.46153846,4461.53846154,4302.56410256,4285.12820513,1693.0,1662.0,18.631,0.0,0.0,0.0,0.0,mike,0
100.0,4704.1025641,4550.25641026,4598.46153846,4272.30769231,4528.71794872,4025.64102564,4522.56410256,4661.53846154,4533.84615385,4655.8974359,4426.15384615,4471.79487179,4312.82051282,4298.46153846,1693.0,1663.0,18.639,0.0,0.0,0.0,0.0,mike,0
101.0,4709.74358974,4570.25641026,4603.07692308,4278.97435897,4548.20512821,4029.23076923,4529.74358974,4672.82051282,4543.58974359,4672.30769231,4441.53846154,4481.02564103,4330.25641026,4311.79487179,1693.0,1663.0,18.647,0.0,0.0,0.0,0.0,mike,0
102.0,4710.76923077,4570.76923077,4606.15384615,4275.8974359,4550.25641026,4024.1025641,4526.15384615,4673.33333333,4545.12820513,4670.25641026,4439.48717949,4476.41025641,4328.71794872,4309.74358974,1692.0,1663.0,18.655,0.0,0.0,0.0,0.0,mike,0
103.0,4713.84615385,4557.94871795,4609.74358974,4273.84615385,4537.43589744,4016.41025641,4523.07692308,4666.66666667,4541.02564103,4664.1025641,4427.69230769,4476.41025641,4318.97435897,4301.53846154,1694.0,1663.0,18.663,0.0,0.0,0.0,0.0,mike,0
104.0,4720.51282051,4567.69230769,4616.92307692,4280.51282051,4533.84615385,4023.07692308,4535.38461538,4669.23076923,4543.58974359,4669.74358974,4433.33333333,4488.71794872,4325.64102564,4307.69230769,1693.0,1662.0,18.67,0.0,0.0,0.0,0.0,mike,0
105.0,4724.1025641,4582.56410256,4620.0,4287.69230769,4537.94871795,4034.35897436,4544.1025641,4677.43589744,4555.8974359,4677.43589744,4450.25641026,4495.8974359,4340.51282051,4322.56410256,1694.0,1662.0,18.678,0.0,0.0,0.0,0.0,mike,0
106.0,4720.51282051,4573.84615385,4615.38461538,4283.07692308,4551.28205128,4037.94871795,4538.97435897,4680.51282051,4562.05128205,4681.53846154,4449.74358974,4491.79487179,4343.58974359,4322.05128205,1694.0,1660.0,18.686,0.0,0.0,0.0,0.0,mike,0
107.0,4716.92307692,4562.05128205,4610.76923077,4276.92307692,4554.87179487,4034.87179487,4535.38461538,4679.48717949,4553.33333333,4679.48717949,4443.58974359,4488.20512821,4336.41025641,4311.28205128,1694.0,1660.0,18.694,0.0,0.0,0.0,0.0,mike,0
108.0,4715.8974359,4565.64102564,4611.79487179,4278.46153846,4543.58974359,4031.28205128,4537.43589744,4678.97435897,4552.82051282,4675.38461538,4445.64102564,4489.74358974,4331.28205128,4308.71794872,1694.0,1660.0,18.702,0.0,0.0,0.0,0.0,mike,0
109.0,4712.82051282,4568.71794872,4608.71794872,4280.0,4542.05128205,4030.76923077,4534.35897436,4674.87179487,4555.38461538,4673.84615385,4440.0,4481.02564103,4327.17948718,4304.61538462,1693.0,1661.0,18.709,0.0,0.0,0.0,0.0,mike,0
110.0,4710.25641026,4566.66666667,4604.1025641,4277.43589744,4547.17948718,4028.71794872,4531.28205128,4668.71794872,4545.64102564,4668.71794872,4432.30769231,4473.84615385,4324.61538462,4302.56410256,1694.0,1661.0,18.717,0.0,0.0,0.0,0.0,mike,0
111.0,4709.23076923,4566.66666667,4606.66666667,4276.92307692,4540.0,4026.15384615,4533.33333333,4666.66666667,4536.92307692,4660.51282051,4436.92307692,4481.02564103,4324.1025641,4308.71794872,1693.0,1661.0,18.725,0.0,0.0,0.0,0.0,mike,0
112.0,4710.76923077,4565.64102564,4609.74358974,4279.48717949,4537.43589744,4030.25641026,4536.41025641,4670.76923077,4542.05128205,4663.58974359,4443.58974359,4488.20512821,4324.61538462,4309.74358974,1693.0,1661.0,18.733,0.0,0.0,0.0,0.0,mike,0
113.0,4717.94871795,4569.23076923,4613.33333333,4280.51282051,4544.61538462,4032.82051282,4540.0,4678.46153846,4552.82051282,4675.38461538,4445.12820513,4491.28205128,4334.35897436,4311.28205128,1692.0,1662.0,18.741,0.0,0.0,0.0,0.0,mike,0
114.0,4718.97435897,4571.28205128,4615.38461538,4280.51282051,4538.97435897,4026.15384615,4535.8974359,4679.48717949,4554.35897436,4673.84615385,4443.58974359,4491.28205128,4337.94871795,4311.79487179,1693.0,1662.0,18.749,0.0,0.0,0.0,0.0,mike,0
115.0,4711.79487179,4566.15384615,4613.84615385,4280.51282051,4530.76923077,4019.48717949,4528.20512821,4675.8974359,4550.76923077,4670.25641026,4440.0,4486.15384615,4327.69230769,4306.15384615,1691.0,1662.0,18.756,0.0,0.0,0.0,0.0,mike,0
116.0,4718.97435897,4568.20512821,4616.92307692,4282.56410256,4546.15384615,4028.20512821,4533.84615385,4683.07692308,4555.38461538,4681.53846154,4446.66666667,4493.33333333,4331.28205128,4312.82051282,1693.0,1663.0,18.764,0.0,0.0,0.0,0.0,mike,0
117.0,4728.71794872,4572.30769231,4622.05128205,4282.05128205,4558.46153846,4037.94871795,4545.12820513,4690.76923077,4560.0,4687.17948718,4456.41025641,4506.15384615,4345.64102564,4329.23076923,1693.0,1662.0,18.772,0.0,0.0,0.0,0.0,mike,0
118.0,4721.02564103,4569.23076923,4618.46153846,4278.97435897,4541.53846154,4030.76923077,4538.46153846,4682.05128205,4554.87179487,4678.97435897,4447.69230769,4499.48717949,4340.51282051,4324.61538462,1693.0,1663.0,18.78,0.0,0.0,0.0,0.0,mike,0
119.0,4715.8974359,4566.15384615,4614.87179487,4280.51282051,4528.20512821,4025.12820513,4531.79487179,4677.43589744,4551.28205128,4675.38461538,4439.48717949,4488.20512821,4327.69230769,4309.23076923,1694.0,1662.0,18.788,0.0,0.0,0.0,0.0,mike,0
120.0,4720.51282051,4569.74358974,4616.92307692,4283.07692308,4545.12820513,4032.82051282,4540.0,4687.69230769,4555.8974359,4680.51282051,4446.15384615,4492.82051282,4334.87179487,4313.84615385,1694.0,1663.0,18.796,0.0,0.0,0.0,0.0,mike,0
121.0,4721.53846154,4573.84615385,4617.43589744,4282.56410256,4562.56410256,4038.46153846,4542.56410256,4691.28205128,4558.97435897,4684.61538462,4448.20512821,4497.43589744,4343.07692308,4321.02564103,1695.0,1662.0,18.803,0.0,0.0,0.0,0.0,mike,0
122.0,4718.46153846,4571.79487179,4615.38461538,4282.05128205,4552.30769231,4035.38461538,4536.92307692,4681.53846154,4554.35897436,4681.02564103,4443.07692308,4491.79487179,4335.8974359,4314.87179487,1694.0,1661.0,18.811,0.0,0.0,0.0,0.0,mike,0
123.0,4713.33333333,4561.53846154,4608.71794872,4280.0,4538.97435897,4030.25641026,4535.8974359,4670.25641026,4550.76923077,4669.23076923,4439.48717949,4483.07692308,4326.66666667,4308.71794872,1695.0,1662.0,18.819,0.0,0.0,0.0,0.0,mike,0
124.0,4706.66666667,4554.35897436,4600.0,4275.38461538,4544.1025641,4027.17948718,4536.92307692,4670.25641026,4551.28205128,4667.17948718,4436.92307692,4475.38461538,4326.66666667,4306.15384615,1695.0,1661.0,18.827,0.0,0.0,0.0,0.0,mike,0
125.0,4699.48717949,4555.38461538,4595.8974359,4269.23076923,4545.12820513,4028.20512821,4535.8974359,4673.33333333,4548.20512821,4672.30769231,4432.82051282,4475.38461538,4328.20512821,4298.46153846,1696.0,1661.0,18.835,0.0,0.0,0.0,0.0,mike,0
126.0,4691.79487179,4560.51282051,4595.8974359,4270.25641026,4536.92307692,4035.38461538,4545.64102564,4671.79487179,4545.12820513,4666.15384615,4428.20512821,4473.33333333,4324.1025641,4291.79487179,1694.0,1661.0,18.842,0.0,0.0,0.0,0.0,mike,0
127.0,4693.33333333,4564.1025641,4599.48717949,4276.92307692,4537.94871795,4037.43589744,4554.35897436,4668.20512821,4547.69230769,4662.56410256,4432.82051282,4473.33333333,4324.61538462,4296.41025641,1696.0,1662.0,18.85,0.0,0.0,0.0,0.0,mike,0
128.0,4703.07692308,4566.66666667,4603.58974359,4279.48717949,4542.05128205,4030.76923077,4544.1025641,4666.15384615,4550.76923077,4670.25641026,4444.1025641,4485.64102564,4334.35897436,4305.64102564,1695.0,1661.0,18.858,0.0,0.0,0.0,0.0,mike,0
0.0,4703.58974359,4567.17948718,4602.56410256,4279.48717949,4539.48717949,4026.66666667,4534.87179487,4662.56410256,4553.84615385,4675.38461538,4443.07692308,4488.20512821,4337.43589744,4307.17948718,1695.0,1662.0,18.866,0.0,0.0,0.0,0.0,mike,0
1.0,4692.82051282,4561.02564103,4598.97435897,4277.43589744,4536.92307692,4028.71794872,4538.46153846,4662.05128205,4550.25641026,4668.71794872,4430.76923077,4475.38461538,4328.20512821,4300.0,1696.0,1662.0,18.874,0.0,0.0,0.0,0.0,mike,0
2.0,4686.15384615,4553.33333333,4597.94871795,4269.23076923,4537.94871795,4029.23076923,4541.53846154,4669.23076923,4540.0,4660.51282051,4424.1025641,4470.25641026,4323.58974359,4293.84615385,1695.0,1662.0,18.882,0.0,0.0,0.0,0.0,mike,0
3.0,4688.71794872,4557.94871795,4598.97435897,4267.17948718,4534.35897436,4026.66666667,4544.61538462,4679.48717949,4536.92307692,4662.56410256,4432.30769231,4475.8974359,4330.76923077,4295.8974359,1696.0,1662.0,18.889,0.0,0.0,0.0,0.0,mike,0
4.0,4693.84615385,4569.74358974,4599.48717949,4276.41025641,4533.33333333,4029.74358974,4554.87179487,4684.1025641,4540.0,4671.28205128,4441.02564103,4482.56410256,4333.84615385,4300.0,1696.0,1663.0,18.897,0.0,0.0,0.0,0.0,mike,0
5.0,4698.97435897,4571.28205128,4604.61538462,4281.02564103,4538.46153846,4035.8974359,4558.97435897,4687.69230769,4542.56410256,4677.43589744,4443.58974359,4489.23076923,4335.38461538,4307.69230769,1696.0,1664.0,18.905,0.0,0.0,0.0,0.0,mike,0
6.0,4701.02564103,4568.71794872,4613.84615385,4277.94871795,4540.0,4035.8974359,4557.94871795,4693.84615385,4549.74358974,4678.97435897,4444.1025641,4492.82051282,4341.53846154,4313.84615385,1696.0,1664.0,18.913,0.0,0.0,0.0,0.0,mike,0
7.0,4697.94871795,4567.69230769,4613.84615385,4276.41025641,4541.02564103,4034.35897436,4556.41025641,4691.79487179,4554.35897436,4679.48717949,4445.12820513,4490.25641026,4340.51282051,4312.30769231,1697.0,1664.0,18.921,0.0,0.0,0.0,0.0,mike,0
8.0,4693.84615385,4564.61538462,4607.17948718,4276.41025641,4545.64102564,4032.30769231,4547.17948718,4681.02564103,4551.28205128,4679.48717949,4443.58974359,4489.74358974,4334.35897436,4311.28205128,1696.0,1664.0,18.928,0.0,0.0,0.0,0.0,mike,0
9.0,4690.76923077,4561.02564103,4603.58974359,4277.43589744,4548.20512821,4031.79487179,4539.48717949,4678.97435897,4553.33333333,4680.51282051,4441.02564103,4490.76923077,4334.87179487,4310.76923077,1697.0,1665.0,18.936,0.0,0.0,0.0,0.0,mike,0
10.0,4687.17948718,4555.38461538,4601.02564103,4277.94871795,4545.64102564,4033.33333333,4540.51282051,4679.48717949,4557.94871795,4677.43589744,4434.87179487,4487.69230769,4331.79487179,4301.53846154,1697.0,1668.0,18.944,0.0,0.0,0.0,0.0,mike,0
11.0,4685.12820513,4552.82051282,4599.48717949,4276.92307692,4540.0,4030.76923077,4541.02564103,4673.33333333,4555.8974359,4672.30769231,4431.79487179,4485.12820513,4324.1025641,4295.8974359,1697.0,1667.0,18.952,0.0,0.0,0.0,0.0,mike,0
12.0,4686.15384615,4562.56410256,4603.58974359,4277.94871795,4538.46153846,4030.25641026,4539.48717949,4671.79487179,4555.38461538,4672.30769231,4440.0,4487.17948718,4328.20512821,4303.58974359,1697.0,1666.0,18.96,0.0,0.0,0.0,0.0,mike,0
13.0,4688.20512821,4570.76923077,4606.15384615,4278.97435897,4541.53846154,4034.35897436,4541.53846154,4674.87179487,4555.38461538,4672.30769231,4441.02564103,4489.23076923,4334.87179487,4309.74358974,1697.0,1664.0,18.968,0.0,0.0,0.0,0.0,mike,0
14.0,4688.71794872,4567.17948718,4606.15384615,4277.94871795,4545.12820513,4032.30769231,4542.05128205,4673.33333333,4553.33333333,4669.23076923,4433.33333333,4488.71794872,4333.84615385,4309.23076923,1696.0,1663.0,18.975,0.0,0.0,0.0,0.0,mike,0
15.0,4670.76923077,4565.64102564,4605.12820513,4277.94871795,4540.51282051,4026.66666667,4538.97435897,4670.76923077,4552.30769231,4669.74358974,4437.43589744,4490.76923077,4333.33333333,4308.71794872,1696.0,1663.0,18.983,0.0,0.0,0.0,0.0,mike,0
16.0,4649.23076923,4569.74358974,4603.07692308,4277.94871795,4538.46153846,4027.17948718,4539.48717949,4670.76923077,4553.33333333,4670.76923077,4443.07692308,4491.79487179,4334.35897436,4310.76923077,1694.0,1662.0,18.991,0.0,0.0,0.0,0.0,mike,0
17.0,4645.12820513,4567.17948718,4602.56410256,4278.46153846,4544.1025641,4028.71794872,4542.05128205,4675.38461538,4553.84615385,4672.30769231,4443.58974359,4491.79487179,4335.38461538,4310.25641026,1695.0,1662.0,18.999,0.0,0.0,0.0,0.0,mike,0
18.0,4639.48717949,4558.97435897,4602.05128205,4278.46153846,4542.05128205,4029.74358974,4540.0,4673.33333333,4552.82051282,4674.35897436,4444.1025641,4489.23076923,4335.38461538,4301.02564103,1694.0,1660.0,19.007,0.0,0.0,0.0,0.0,mike,0
19.0,4627.17948718,4555.38461538,4598.46153846,4277.43589744,4536.92307692,4030.25641026,4537.43589744,4666.15384615,4552.30769231,4672.82051282,4438.97435897,4481.02564103,4328.20512821,4292.30769231,1694.0,1661.0,19.014,0.0,0.0,0.0,0.0,mike,0
20.0,4631.28205128,4552.82051282,4600.0,4275.8974359,4541.53846154,4028.20512821,4536.92307692,4667.69230769,4553.84615385,4671.79487179,4434.35897436,4478.97435897,4323.58974359,4292.82051282,1695.0,1659.0,19.022,0.0,0.0,0.0,0.0,mike,0
21.0,4642.56410256,4558.46153846,4606.15384615,4277.94871795,4550.76923077,4030.76923077,4543.58974359,4677.94871795,4554.87179487,4675.38461538,4441.02564103,4486.66666667,4331.28205128,4298.97435897,1693.0,1660.0,19.03,0.0,0.0,0.0,0.0,mike,0
22.0,4647.17948718,4568.71794872,4611.28205128,4282.05128205,4556.41025641,4037.94871795,4554.35897436,4680.0,4555.8974359,4677.43589744,4440.51282051,4493.84615385,4334.35897436,4303.07692308,1694.0,1660.0,19.038,0.0,0.0,0.0,0.0,mike,0
23.0,4646.15384615,4569.74358974,4609.74358974,4281.02564103,4551.79487179,4037.94871795,4557.43589744,4676.92307692,4555.38461538,4672.30769231,4429.23076923,4487.17948718,4326.15384615,4296.41025641,1693.0,1660.0,19.046,0.0,0.0,0.0,0.0,mike,0
24.0,4638.97435897,4564.61538462,4601.53846154,4278.97435897,4543.07692308,4034.35897436,4553.33333333,4675.38461538,4552.30769231,4667.69230769,4428.20512821,4475.38461538,4322.56410256,4286.15384615,1693.0,1661.0,19.054,0.0,0.0,0.0,0.0,mike,0
25.0,4634.87179487,4567.69230769,4601.02564103,4278.97435897,4547.17948718,4038.46153846,4554.87179487,4681.02564103,4558.97435897,4676.41025641,4440.0,4481.02564103,4334.35897436,4295.8974359,1692.0,1660.0,19.061,0.0,0.0,0.0,0.0,mike,0
26.0,4640.51282051,4572.30769231,4611.28205128,4282.56410256,4552.30769231,4042.56410256,4558.46153846,4692.30769231,4572.82051282,4690.76923077,4447.69230769,4495.8974359,4346.66666667,4311.28205128,1693.0,1662.0,19.069,0.0,0.0,0.0,0.0,mike,0
27.0,4644.1025641,4567.69230769,4612.30769231,4281.53846154,4545.12820513,4040.51282051,4553.84615385,4692.82051282,4573.33333333,4691.28205128,4445.64102564,4493.84615385,4345.12820513,4308.20512821,1693.0,1661.0,19.077,0.0,0.0,0.0,0.0,mike,0
28.0,4646.15384615,4566.15384615,4611.28205128,4279.48717949,4546.66666667,4038.97435897,4551.28205128,4687.17948718,4566.66666667,4685.12820513,4444.1025641,4487.17948718,4340.0,4306.15384615,1693.0,1662.0,19.085,0.0,0.0,0.0,0.0,mike,0
29.0,4656.41025641,4570.76923077,4617.94871795,4283.58974359,4558.46153846,4037.94871795,4552.30769231,4687.17948718,4568.71794872,4685.12820513,4446.15384615,4493.33333333,4341.53846154,4312.30769231,1693.0,1661.0,19.093,0.0,0.0,0.0,0.0,mike,0
30.0,4667.69230769,4573.33333333,4620.0,4287.17948718,4551.79487179,4033.33333333,4549.23076923,4688.71794872,4568.20512821,4682.05128205,4445.12820513,4494.87179487,4343.58974359,4311.28205128,1692.0,1662.0,19.1,0.0,0.0,0.0,0.0,mike,0
31.0,4669.74358974,4573.33333333,4618.46153846,4288.71794872,4543.58974359,4035.8974359,4553.33333333,4687.69230769,4560.51282051,4678.97435897,4445.12820513,4493.84615385,4343.07692308,4309.74358974,1693.0,1661.0,19.108,0.0,0.0,0.0,0.0,mike,0
32.0,4655.8974359,4570.76923077,4612.30769231,4285.12820513,4550.76923077,4038.46153846,4554.35897436,4680.51282051,4552.30769231,4672.82051282,4443.07692308,4490.25641026,4336.41025641,4306.66666667,1692.0,1661.0,19.116,0.0,0.0,0.0,0.0,mike,0
33.0,4639.48717949,4566.66666667,4600.51282051,4277.43589744,4544.61538462,4026.66666667,4540.51282051,4669.23076923,4544.1025641,4661.53846154,4430.25641026,4475.38461538,4325.64102564,4294.35897436,1693.0,1662.0,19.124,0.0,0.0,0.0,0.0,mike,0
34.0,4644.1025641,4568.71794872,4601.53846154,4278.97435897,4537.94871795,4024.1025641,4542.05128205,4671.28205128,4545.12820513,4662.56410256,4425.12820513,4475.8974359,4326.66666667,4293.33333333,1692.0,1661.0,19.132,0.0,0.0,0.0,0.0,mike,0
35.0,4653.33333333,4571.79487179,4612.82051282,4284.1025641,4549.74358974,4032.82051282,4551.79487179,4677.43589744,4552.82051282,4671.28205128,4438.46153846,4490.76923077,4334.35897436,4303.58974359,1693.0,1661.0,19.14,0.0,0.0,0.0,0.0,mike,0
36.0,4649.23076923,4569.74358974,4609.23076923,4280.51282051,4559.48717949,4032.30769231,4543.07692308,4670.25641026,4551.28205128,4669.23076923,4444.1025641,4492.30769231,4335.8974359,4304.61538462,1693.0,1661.0,19.147,0.0,0.0,0.0,0.0,mike,0
37.0,4653.84615385,4575.38461538,4609.23076923,4282.05128205,4552.82051282,4030.76923077,4539.48717949,4672.30769231,4550.76923077,4670.25641026,4439.48717949,4492.82051282,4340.0,4308.20512821,1693.0,1662.0,19.155,0.0,0.0,0.0,0.0,mike,0
38.0,4673.84615385,4585.64102564,4626.66666667,4295.8974359,4552.82051282,4042.56410256,4556.41025641,4687.69230769,4561.02564103,4685.64102564,4450.25641026,4507.69230769,4351.79487179,4319.48717949,1693.0,1662.0,19.163,0.0,0.0,0.0,0.0,mike,0
39.0,4678.46153846,4588.71794872,4630.25641026,4301.02564103,4563.07692308,4052.30769231,4562.05128205,4689.74358974,4564.61538462,4690.76923077,4460.0,4513.84615385,4354.87179487,4321.02564103,1692.0,1662.0,19.171,0.0,0.0,0.0,0.0,mike,0
40.0,4665.12820513,4581.53846154,4616.92307692,4290.76923077,4552.82051282,4040.0,4551.28205128,4676.41025641,4556.41025641,4681.02564103,4448.20512821,4506.15384615,4345.12820513,4311.79487179,1692.0,1662.0,19.179,0.0,0.0,0.0,0.0,mike,0
41.0,4663.07692308,4573.33333333,4616.92307692,4287.69230769,4538.46153846,4028.71794872,4547.17948718,4673.33333333,4554.35897436,4675.38461538,4439.48717949,4503.07692308,4337.94871795,4308.71794872,1691.0,1662.0,19.186,0.0,0.0,0.0,0.0,mike,0
42.0,4668.71794872,4575.38461538,4626.66666667,4295.8974359,4551.28205128,4040.51282051,4555.38461538,4680.51282051,4557.43589744,4679.48717949,4447.69230769,4505.12820513,4344.61538462,4316.41025641,1693.0,1661.0,19.194,0.0,0.0,0.0,0.0,mike,0
43.0,4662.56410256,4583.07692308,4623.07692308,4294.87179487,4563.58974359,4048.20512821,4558.46153846,4682.05128205,4557.43589744,4683.58974359,4450.25641026,4508.71794872,4351.28205128,4322.05128205,1691.0,1661.0,19.202,0.0,0.0,0.0,0.0,mike,0
44.0,4652.30769231,4578.97435897,4612.30769231,4281.53846154,4550.25641026,4029.23076923,4543.58974359,4674.35897436,4552.30769231,4678.97435897,4443.07692308,4503.07692308,4341.53846154,4312.82051282,1692.0,1661.0,19.21,0.0,0.0,0.0,0.0,mike,0
45.0,4655.8974359,4570.25641026,4615.38461538,4278.97435897,4546.15384615,4020.0,4534.35897436,4669.74358974,4551.28205128,4672.30769231,4440.51282051,4491.28205128,4334.87179487,4303.07692308,1691.0,1659.0,19.218,0.0,0.0,0.0,0.0,mike,0
46.0,4658.46153846,4572.30769231,4620.0,4285.12820513,4554.87179487,4030.76923077,4541.53846154,4674.87179487,4553.84615385,4675.8974359,4442.56410256,4490.25641026,4340.51282051,4306.15384615,1692.0,1660.0,19.226,0.0,0.0,0.0,0.0,mike,0
47.0,4650.25641026,4572.82051282,4612.30769231,4281.02564103,4547.17948718,4029.23076923,4541.53846154,4673.33333333,4554.35897436,4680.0,4443.07692308,4494.35897436,4342.05128205,4307.17948718,1693.0,1659.0,19.233,0.0,0.0,0.0,0.0,mike,0
48.0,4647.17948718,4565.64102564,4606.15384615,4275.8974359,4530.25641026,4018.97435897,4534.35897436,4665.12820513,4552.82051282,4675.8974359,4437.94871795,4490.25641026,4333.84615385,4300.51282051,1692.0,1660.0,19.241,0.0,0.0,0.0,0.0,mike,0
49.0,4656.41025641,4565.64102564,4607.69230769,4277.94871795,4522.05128205,4020.0,4535.38461538,4663.07692308,4552.30769231,4673.33333333,4434.87179487,4487.17948718,4334.35897436,4300.51282051,1692.0,1659.0,19.249,0.0,0.0,0.0,0.0,mike,0
50.0,4664.1025641,4570.25641026,4613.84615385,4279.48717949,4529.74358974,4024.61538462,4538.97435897,4668.20512821,4555.38461538,4677.43589744,4441.02564103,4492.82051282,4343.07692308,4310.25641026,1692.0,1659.0,19.257,0.0,0.0,0.0,0.0,mike,0
51.0,4664.61538462,4569.74358974,4616.92307692,4281.02564103,4549.23076923,4033.84615385,4542.05128205,4676.92307692,4555.8974359,4680.51282051,4446.15384615,4496.92307692,4345.12820513,4312.82051282,1693.0,1659.0,19.265,0.0,0.0,0.0,0.0,mike,0
52.0,4657.94871795,4567.17948718,4608.71794872,4280.51282051,4548.71794872,4037.43589744,4542.56410256,4676.92307692,4555.8974359,4678.97435897,4444.1025641,4494.35897436,4341.53846154,4302.56410256,1693.0,1658.0,19.273,0.0,0.0,0.0,0.0,mike,0
53.0,4646.66666667,4568.71794872,4599.48717949,4278.46153846,4535.8974359,4025.64102564,4537.43589744,4665.64102564,4554.35897436,4673.33333333,4442.05128205,4491.79487179,4341.02564103,4296.41025641,1695.0,1659.0,19.28,0.0,0.0,0.0,0.0,mike,0
54.0,4642.05128205,4569.23076923,4598.97435897,4276.41025641,4546.15384615,4024.1025641,4534.35897436,4658.97435897,4543.58974359,4664.61538462,4437.94871795,4486.66666667,4336.92307692,4296.92307692,1693.0,1659.0,19.288,0.0,0.0,0.0,0.0,mike,0
55.0,4646.15384615,4566.15384615,4600.51282051,4277.43589744,4553.84615385,4033.33333333,4537.94871795,4659.48717949,4534.35897436,4662.05128205,4429.23076923,4475.8974359,4328.20512821,4293.84615385,1694.0,1660.0,19.296,0.0,0.0,0.0,0.0,mike,0
56.0,4648.20512821,4569.74358974,4598.46153846,4282.56410256,4544.1025641,4032.30769231,4540.51282051,4660.51282051,4543.58974359,4667.17948718,4433.33333333,4477.94871795,4328.71794872,4292.82051282,1694.0,1659.0,19.304,0.0,0.0,0.0,0.0,mike,0
57.0,4646.15384615,4573.84615385,4600.0,4283.58974359,4545.12820513,4026.15384615,4532.30769231,4660.51282051,4550.25641026,4670.25641026,4440.51282051,4487.69230769,4334.87179487,4295.8974359,1694.0,1662.0,19.312,0.0,0.0,0.0,0.0,mike,0
58.0,4643.58974359,4569.23076923,4600.0,4277.43589744,4546.15384615,4024.1025641,4526.66666667,4662.05128205,4544.61538462,4668.71794872,4436.41025641,4482.05128205,4332.82051282,4291.79487179,1694.0,1661.0,19.319,0.0,0.0,0.0,0.0,mike,0
59.0,4646.66666667,4568.71794872,4598.97435897,4275.8974359,4538.46153846,4024.61538462,4534.35897436,4668.20512821,4549.74358974,4673.33333333,4436.41025641,4478.46153846,4333.84615385,4291.79487179,1693.0,1662.0,19.327,0.0,0.0,0.0,0.0,mike,0
60.0,4649.74358974,4569.74358974,4601.53846154,4281.02564103,4537.94871795,4028.20512821,4541.53846154,4671.28205128,4558.46153846,4681.02564103,4445.12820513,4489.74358974,4342.05128205,4301.02564103,1694.0,1662.0,19.335,0.0,0.0,0.0,0.0,mike,0
61.0,4644.1025641,4559.48717949,4601.02564103,4277.94871795,4542.05128205,4030.25641026,4538.46153846,4668.20512821,4553.84615385,4678.97435897,4443.58974359,4490.76923077,4339.48717949,4303.58974359,1693.0,1662.0,19.343,0.0,0.0,0.0,0.0,mike,0
62.0,4642.05128205,4555.38461538,4597.94871795,4272.30769231,4541.02564103,4026.66666667,4537.43589744,4669.23076923,4552.82051282,4675.8974359,4440.0,4485.12820513,4334.87179487,4304.1025641,1693.0,1662.0,19.351,0.0,0.0,0.0,0.0,mike,0
63.0,4652.30769231,4567.69230769,4606.15384615,4277.43589744,4540.51282051,4030.76923077,4542.05128205,4674.35897436,4557.94871795,4680.0,4445.64102564,4490.76923077,4343.07692308,4311.28205128,1693.0,1663.0,19.359,0.0,0.0,0.0,0.0,mike,0
64.0,4660.0,4572.30769231,4614.87179487,4282.56410256,4538.46153846,4037.43589744,4542.56410256,4671.79487179,4556.41025641,4681.02564103,4446.66666667,4493.33333333,4345.64102564,4311.28205128,1694.0,1662.0,19.366,0.0,0.0,0.0,0.0,mike,0
65.0,4660.0,4567.69230769,4612.30769231,4280.51282051,4546.66666667,4036.92307692,4541.53846154,4671.28205128,4554.35897436,4677.94871795,4445.12820513,4491.28205128,4341.02564103,4309.74358974,1693.0,1663.0,19.374,0.0,0.0,0.0,0.0,mike,0
66.0,4660.51282051,4570.76923077,4612.30769231,4280.0,4554.35897436,4031.28205128,4543.58974359,4674.87179487,4555.8974359,4677.43589744,4447.17948718,4493.33333333,4342.05128205,4315.38461538,1693.0,1662.0,19.382,0.0,0.0,0.0,0.0,mike,0
67.0,4663.58974359,4574.87179487,4617.94871795,4281.02564103,4543.58974359,4027.69230769,4543.58974359,4674.35897436,4555.8974359,4679.48717949,4448.71794872,4495.38461538,4345.12820513,4315.38461538,1692.0,1663.0,19.39,0.0,0.0,0.0,0.0,mike,0
68.0,4664.1025641,4571.79487179,4616.92307692,4281.53846154,4541.53846154,4030.25641026,4542.05128205,4670.76923077,4556.41025641,4683.07692308,4452.30769231,4496.92307692,4347.17948718,4310.76923077,1693.0,1663.0,19.398,0.0,0.0,0.0,0.0,mike,0
69.0,4663.07692308,4570.25641026,4615.38461538,4281.53846154,4549.74358974,4032.30769231,4540.0,4667.69230769,4554.87179487,4681.02564103,4451.79487179,4495.8974359,4346.66666667,4313.84615385,1692.0,1663.0,19.405,0.0,0.0,0.0,0.0,mike,0
70.0,4664.1025641,4569.23076923,4615.8974359,4281.02564103,4536.41025641,4027.69230769,4540.0,4662.05128205,4544.1025641,4669.23076923,4441.02564103,4490.25641026,4336.41025641,4311.28205128,1693.0,1663.0,19.413,0.0,0.0,0.0,0.0,mike,0
71.0,4658.46153846,4560.51282051,4607.17948718,4277.94871795,4521.02564103,4019.48717949,4536.41025641,4653.33333333,4532.82051282,4657.94871795,4429.23076923,4482.05128205,4319.48717949,4300.0,1692.0,1663.0,19.421,0.0,0.0,0.0,0.0,mike,0
72.0,4647.17948718,4550.25641026,4595.8974359,4271.79487179,4533.84615385,4018.97435897,4526.15384615,4647.17948718,4530.25641026,4652.30769231,4421.02564103,4474.35897436,4309.23076923,4291.28205128,1693.0,1662.0,19.429,0.0,0.0,0.0,0.0,mike,0
73.0,4651.28205128,4556.41025641,4601.02564103,4271.79487179,4550.25641026,4029.23076923,4518.97435897,4653.33333333,4534.87179487,4654.87179487,4419.48717949,4475.38461538,4314.35897436,4291.79487179,1692.0,1661.0,19.437,0.0,0.0,0.0,0.0,mike,0
74.0,4669.23076923,4569.74358974,4614.87179487,4282.05128205,4555.38461538,4037.43589744,4525.12820513,4667.69230769,4545.12820513,4665.12820513,4431.79487179,4487.17948718,4328.71794872,4301.53846154,1694.0,1663.0,19.445,0.0,0.0,0.0,0.0,mike,0
75.0,4674.35897436,4573.84615385,4620.0,4289.74358974,4552.30769231,4035.38461538,4537.43589744,4674.87179487,4555.38461538,4672.82051282,4444.61538462,4494.87179487,4336.92307692,4311.79487179,1692.0,1662.0,19.452,0.0,0.0,0.0,0.0,mike,0
76.0,4669.74358974,4577.94871795,4617.43589744,4290.25641026,4545.12820513,4035.38461538,4540.0,4674.87179487,4556.92307692,4673.33333333,4445.64102564,4493.84615385,4339.48717949,4315.38461538,1693.0,1663.0,19.46,0.0,0.0,0.0,0.0,mike,0
77.0,4672.30769231,4579.48717949,4617.43589744,4286.66666667,4550.25641026,4036.92307692,4532.30769231,4672.82051282,4552.30769231,4671.79487179,4445.12820513,4495.38461538,4343.58974359,4315.38461538,1694.0,1662.0,19.468,0.0,0.0,0.0,0.0,mike,0
78.0,4672.30769231,4572.30769231,4617.43589744,4282.56410256,4553.84615385,4030.25641026,4523.58974359,4666.66666667,4545.64102564,4667.69230769,4442.05128205,4495.38461538,4337.94871795,4314.35897436,1693.0,1662.0,19.476,0.0,0.0,0.0,0.0,mike,0
79.0,4664.1025641,4567.17948718,4614.35897436,4280.51282051,4543.58974359,4025.64102564,4522.05128205,4661.53846154,4538.97435897,4661.53846154,4433.84615385,4489.74358974,4325.12820513,4308.71794872,1694.0,1661.0,19.484,0.0,0.0,0.0,0.0,mike,0
80.0,4662.56410256,4569.23076923,4613.33333333,4280.51282051,4537.94871795,4028.20512821,4524.61538462,4664.61538462,4542.56410256,4665.12820513,4437.43589744,4489.74358974,4330.25641026,4309.23076923,1694.0,1660.0,19.491,0.0,0.0,0.0,0.0,mike,0
81.0,4672.82051282,4570.25641026,4616.92307692,4282.56410256,4540.51282051,4028.20512821,4522.56410256,4671.28205128,4551.28205128,4672.82051282,4448.20512821,4497.94871795,4344.1025641,4317.43589744,1695.0,1659.0,19.499,0.0,0.0,0.0,0.0,mike,0
82.0,4681.02564103,4575.38461538,4619.48717949,4289.23076923,4542.56410256,4026.15384615,4522.56410256,4672.30769231,4553.33333333,4673.33333333,4447.69230769,4504.1025641,4344.1025641,4321.02564103,1694.0,1660.0,19.507,0.0,0.0,0.0,0.0,mike,0
83.0,4677.94871795,4582.56410256,4618.97435897,4292.30769231,4553.84615385,4033.84615385,4534.87179487,4674.35897436,4552.82051282,4674.35897436,4445.64102564,4504.61538462,4341.02564103,4322.05128205,1694.0,1661.0,19.515,0.0,0.0,0.0,0.0,mike,0
84.0,4673.84615385,4581.02564103,4616.92307692,4289.23076923,4553.33333333,4035.38461538,4540.0,4670.25641026,4551.79487179,4674.35897436,4446.66666667,4498.97435897,4343.07692308,4318.97435897,1693.0,1660.0,19.523,0.0,0.0,0.0,0.0,mike,0
85.0,4674.35897436,4580.0,4617.43589744,4289.23076923,4535.8974359,4026.15384615,4528.20512821,4667.69230769,4550.76923077,4672.82051282,4445.12820513,4495.38461538,4342.05128205,4316.41025641,1694.0,1661.0,19.531,0.0,0.0,0.0,0.0,mike,0
86.0,4672.82051282,4578.97435897,4617.94871795,4287.17948718,4540.51282051,4028.71794872,4521.02564103,4669.74358974,4551.28205128,4672.30769231,4446.15384615,4496.92307692,4342.05128205,4318.97435897,1693.0,1661.0,19.538,0.0,0.0,0.0,0.0,mike,0
87.0,4671.79487179,4571.79487179,4614.35897436,4281.02564103,4554.87179487,4036.41025641,4523.58974359,4667.17948718,4545.64102564,4669.23076923,4447.69230769,4495.38461538,4343.58974359,4317.94871795,1692.0,1662.0,19.546,0.0,0.0,0.0,0.0,mike,0
88.0,4671.79487179,4566.15384615,4614.87179487,4280.0,4554.35897436,4031.28205128,4524.1025641,4660.0,4535.8974359,4663.58974359,4444.1025641,4491.28205128,4341.02564103,4311.28205128,1693.0,1662.0,19.554,0.0,0.0,0.0,0.0,mike,0
89.0,4668.20512821,4571.79487179,4615.38461538,4281.53846154,4547.69230769,4026.66666667,4525.12820513,4662.05128205,4536.92307692,4664.61538462,4443.07692308,4492.30769231,4342.56410256,4310.25641026,1692.0,1663.0,19.562,0.0,0.0,0.0,0.0,mike,0
90.0,4664.1025641,4575.38461538,4608.71794872,4281.53846154,4542.56410256,4026.66666667,4524.61538462,4663.58974359,4541.53846154,4664.61538462,4445.12820513,4493.84615385,4343.07692308,4313.33333333,1693.0,1663.0,19.57,0.0,0.0,0.0,0.0,mike,0
91.0,4664.61538462,4567.17948718,4606.66666667,4279.48717949,4535.8974359,4018.97435897,4520.0,4658.97435897,4540.51282051,4660.51282051,4443.58974359,4488.20512821,4335.8974359,4307.69230769,1692.0,1664.0,19.578,0.0,0.0,0.0,0.0,mike,0
92.0,4669.23076923,4567.69230769,4615.38461538,4280.0,4533.84615385,4018.46153846,4524.61538462,4669.23076923,4549.23076923,4667.69230769,4443.58974359,4494.35897436,4339.48717949,4310.76923077,1693.0,1664.0,19.585,0.0,0.0,0.0,0.0,mike,0
93.0,4676.41025641,4579.48717949,4620.51282051,4285.64102564,4541.02564103,4032.82051282,4536.41025641,4682.56410256,4560.51282051,4674.35897436,4447.69230769,4506.15384615,4350.25641026,4319.48717949,1693.0,1665.0,19.593,0.0,0.0,0.0,0.0,mike,0
94.0,4675.8974359,4580.51282051,4613.33333333,4287.69230769,4550.76923077,4037.94871795,4539.48717949,4677.43589744,4556.92307692,4666.66666667,4446.66666667,4501.02564103,4341.53846154,4314.35897436,1693.0,1665.0,19.601,0.0,0.0,0.0,0.0,mike,0
95.0,4665.64102564,4570.25641026,4606.15384615,4281.02564103,4557.43589744,4035.8974359,4534.87179487,4669.74358974,4550.25641026,4659.48717949,4440.51282051,4488.71794872,4328.20512821,4305.64102564,1693.0,1664.0,19.609,0.0,0.0,0.0,0.0,mike,0
96.0,4661.53846154,4569.74358974,4608.71794872,4280.51282051,4554.87179487,4036.92307692,4535.8974359,4677.94871795,4552.82051282,4663.07692308,4440.51282051,4490.76923077,4332.82051282,4309.74358974,1693.0,1664.0,19.617,0.0,0.0,0.0,0.0,mike,0
97.0,4668.20512821,4573.33333333,4615.8974359,4291.79487179,4550.76923077,4037.94871795,4540.51282051,4683.58974359,4554.35897436,4664.61538462,4442.56410256,4495.38461538,4336.92307692,4312.82051282,1694.0,1662.0,19.624,0.0,0.0,0.0,0.0,mike,0
98.0,4673.33333333,4572.30769231,4617.94871795,4292.82051282,4552.82051282,4037.43589744,4540.0,4674.87179487,4552.30769231,4661.02564103,4441.53846154,4492.30769231,4331.79487179,4308.20512821,1693.0,1664.0,19.632,0.0,0.0,0.0,0.0,mike,0
99.0,4673.84615385,4568.71794872,4617.94871795,4283.07692308,4552.30769231,4035.38461538,4544.1025641,4670.76923077,4546.15384615,4660.0,4441.02564103,4491.28205128,4333.84615385,4310.25641026,1694.0,1662.0,19.64,0.0,0.0,0.0,0.0,mike,0
100.0,4668.71794872,4560.0,4615.38461538,4279.48717949,4544.1025641,4030.25641026,4549.74358974,4672.82051282,4542.05128205,4657.94871795,4441.02564103,4488.71794872,4331.79487179,4307.69230769,1693.0,1662.0,19.648,0.0,0.0,0.0,0.0,mike,0
101.0,4658.97435897,4554.87179487,4604.1025641,4278.46153846,4533.33333333,4028.20512821,4546.15384615,4669.74358974,4544.1025641,4654.35897436,4436.41025641,4482.56410256,4322.56410256,4292.82051282,1695.0,1662.0,19.656,0.0,0.0,0.0,0.0,mike,0
102.0,4663.58974359,4567.69230769,4603.58974359,4279.48717949,4535.38461538,4034.35897436,4546.66666667,4672.82051282,4554.87179487,4661.53846154,4439.48717949,4487.69230769,4330.76923077,4297.43589744,1693.0,1661.0,19.664,0.0,0.0,0.0,0.0,mike,0
103.0,4680.0,4581.02564103,4619.48717949,4291.79487179,4549.74358974,4042.56410256,4558.97435897,4687.17948718,4566.66666667,4675.38461538,4456.41025641,4499.48717949,4350.76923077,4322.05128205,1694.0,1662.0,19.671,0.0,0.0,0.0,0.0,mike,0
104.0,4677.43589744,4575.38461538,4618.97435897,4292.82051282,4554.35897436,4038.97435897,4555.38461538,4687.69230769,4564.1025641,4673.33333333,4457.43589744,4497.43589744,4349.74358974,4325.64102564,1694.0,1661.0,19.679,0.0,0.0,0.0,0.0,mike,0
105.0,4662.56410256,4565.64102564,4604.1025641,4276.92307692,4546.66666667,4027.69230769,4540.51282051,4671.28205128,4552.30769231,4662.56410256,4443.07692308,4487.69230769,4333.84615385,4308.20512821,1694.0,1662.0,19.687,0.0,0.0,0.0,0.0,mike,0
106.0,4666.66666667,4567.69230769,4606.66666667,4278.46153846,4549.74358974,4028.71794872,4548.71794872,4671.79487179,4550.76923077,4665.12820513,4442.05128205,4489.23076923,4334.35897436,4305.12820513,1694.0,1661.0,19.695,0.0,0.0,0.0,0.0,mike,0
107.0,4676.92307692,4571.28205128,4620.51282051,4291.79487179,4553.84615385,4037.94871795,4560.51282051,4683.07692308,4555.8974359,4668.71794872,4447.69230769,4493.84615385,4343.07692308,4311.79487179,1694.0,1662.0,19.703,0.0,0.0,0.0,0.0,mike,0
108.0,4671.79487179,4571.28205128,4620.51282051,4289.23076923,4541.53846154,4037.94871795,4555.38461538,4681.02564103,4554.35897436,4665.64102564,4444.1025641,4493.33333333,4341.02564103,4311.79487179,1694.0,1661.0,19.71,0.0,0.0,0.0,0.0,mike,0
109.0,4669.74358974,4571.28205128,4614.87179487,4288.20512821,4539.48717949,4032.82051282,4551.79487179,4676.92307692,4553.84615385,4670.76923077,4448.20512821,4494.87179487,4342.05128205,4315.38461538,1694.0,1662.0,19.718,0.0,0.0,0.0,0.0,mike,0
110.0,4677.43589744,4570.25641026,4614.35897436,4293.84615385,4553.84615385,4035.38461538,4552.30769231,4677.94871795,4555.38461538,4674.35897436,4458.97435897,4495.8974359,4350.25641026,4318.97435897,1695.0,1661.0,19.726,0.0,0.0,0.0,0.0,mike,0
111.0,4676.92307692,4572.30769231,4615.8974359,4291.79487179,4556.41025641,4042.56410256,4552.82051282,4680.0,4559.48717949,4671.79487179,4457.43589744,4497.43589744,4352.30769231,4319.48717949,1693.0,1661.0,19.734,0.0,0.0,0.0,0.0,mike,0
112.0,4676.92307692,4576.41025641,4620.51282051,4291.28205128,4553.84615385,4047.17948718,4560.51282051,4684.61538462,4566.66666667,4675.38461538,4456.92307692,4503.58974359,4350.25641026,4322.56410256,1695.0,1661.0,19.742,0.0,0.0,0.0,0.0,mike,0
113.0,4680.51282051,4574.35897436,4622.56410256,4292.82051282,4557.94871795,4044.61538462,4563.58974359,4685.64102564,4566.66666667,4676.41025641,4459.48717949,4505.64102564,4350.25641026,4320.51282051,1693.0,1661.0,19.75,0.0,0.0,0.0,0.0,mike,0
114.0,4680.51282051,4576.92307692,4622.05128205,4290.76923077,4554.35897436,4042.56410256,4562.56410256,4685.64102564,4563.58974359,4673.84615385,4458.46153846,4503.58974359,4351.79487179,4315.38461538,1694.0,1662.0,19.757,0.0,0.0,0.0,0.0,mike,0
115.0,4681.53846154,4582.56410256,4624.61538462,4291.79487179,4548.71794872,4046.66666667,4567.17948718,4690.25641026,4569.74358974,4679.48717949,4458.97435897,4507.17948718,4352.82051282,4318.97435897,1694.0,1661.0,19.765,0.0,0.0,0.0,0.0,mike,0
116.0,4683.58974359,4577.94871795,4624.1025641,4292.82051282,4551.28205128,4045.12820513,4561.53846154,4690.25641026,4570.76923077,4682.05128205,4460.0,4507.17948718,4351.79487179,4326.15384615,1694.0,1662.0,19.773,0.0,0.0,0.0,0.0,mike,0
117.0,4679.48717949,4570.76923077,4621.02564103,4291.28205128,4555.38461538,4038.97435897,4553.33333333,4684.1025641,4558.97435897,4672.82051282,4458.46153846,4502.05128205,4351.28205128,4322.05128205,1694.0,1662.0,19.781,0.0,0.0,0.0,0.0,mike,0
118.0,4679.48717949,4570.25641026,4621.02564103,4293.33333333,4555.8974359,4043.07692308,4561.53846154,4683.07692308,4556.92307692,4669.23076923,4458.46153846,4506.66666667,4349.74358974,4315.38461538,1694.0,1662.0,19.789,0.0,0.0,0.0,0.0,mike,0
119.0,4680.0,4573.33333333,4618.46153846,4292.82051282,4552.30769231,4043.58974359,4563.07692308,4681.02564103,4557.94871795,4673.33333333,4454.35897436,4505.12820513,4343.58974359,4312.30769231,1693.0,1662.0,19.796,0.0,0.0,0.0,0.0,mike,0
120.0,4672.82051282,4581.02564103,4614.87179487,4288.71794872,4550.25641026,4035.8974359,4551.79487179,4678.46153846,4555.8974359,4673.84615385,4451.28205128,4494.35897436,4344.61538462,4310.76923077,1693.0,1662.0,19.804,0.0,0.0,0.0,0.0,mike,0
121.0,4673.33333333,4580.51282051,4618.46153846,4291.28205128,4554.35897436,4039.48717949,4554.35897436,4686.66666667,4562.56410256,4672.82051282,4456.92307692,4497.94871795,4352.82051282,4315.8974359,1693.0,1661.0,19.812,0.0,0.0,0.0,0.0,mike,0
122.0,4680.0,4570.76923077,4619.48717949,4294.35897436,4554.87179487,4048.20512821,4561.53846154,4690.76923077,4565.12820513,4672.30769231,4458.97435897,4507.17948718,4351.79487179,4321.02564103,1694.0,1662.0,19.82,0.0,0.0,0.0,0.0,mike,0
123.0,4680.51282051,4575.38461538,4619.48717949,4294.35897436,4550.25641026,4043.07692308,4558.46153846,4683.58974359,4557.43589744,4672.82051282,4456.92307692,4507.69230769,4348.71794872,4322.05128205,1693.0,1661.0,19.828,0.0,0.0,0.0,0.0,mike,0
124.0,4680.51282051,4580.51282051,4622.56410256,4292.82051282,4551.28205128,4040.51282051,4556.41025641,4682.05128205,4554.87179487,4671.79487179,4457.94871795,4505.12820513,4349.23076923,4318.97435897,1694.0,1661.0,19.836,0.0,0.0,0.0,0.0,mike,0
125.0,4673.33333333,4570.76923077,4616.92307692,4285.64102564,4556.41025641,4043.07692308,4556.92307692,4686.15384615,4557.94871795,4668.20512821,4454.87179487,4498.97435897,4345.12820513,4314.87179487,1694.0,1661.0,19.843,0.0,0.0,0.0,0.0,mike,0
126.0,4670.25641026,4570.76923077,4613.33333333,4285.12820513,4552.30769231,4036.92307692,4555.38461538,4687.69230769,4560.0,4668.20512821,4449.23076923,4490.76923077,4341.02564103,4311.28205128,1694.0,1662.0,19.851,0.0,0.0,0.0,0.0,mike,0
127.0,4683.07692308,4584.61538462,4620.51282051,4295.8974359,4551.79487179,4039.48717949,4556.92307692,4688.71794872,4566.66666667,4673.84615385,4451.28205128,4493.84615385,4342.56410256,4311.28205128,1694.0,1662.0,19.859,0.0,0.0,0.0,0.0,mike,0
128.0,4684.1025641,4579.48717949,4623.58974359,4294.87179487,4549.74358974,4044.1025641,4557.43589744,4686.66666667,4568.20512821,4673.84615385,4447.69230769,4497.43589744,4340.51282051,4310.25641026,1694.0,1663.0,19.867,0.0,0.0,0.0,0.0,mike,0
0.0,4672.82051282,4567.69230769,4616.92307692,4285.12820513,4543.07692308,4035.38461538,4553.33333333,4682.56410256,4562.56410256,4668.20512821,4443.07692308,4489.74358974,4338.46153846,4307.17948718,1696.0,1662.0,19.875,0.0,0.0,0.0,0.0,mike,0
1.0,4677.43589744,4580.0,4616.92307692,4291.79487179,4551.79487179,4040.51282051,4557.94871795,4686.66666667,4567.17948718,4670.25641026,4449.74358974,4490.76923077,4342.05128205,4308.71794872,1694.0,1663.0,19.882,0.0,0.0,0.0,0.0,mike,0
2.0,4684.61538462,4589.74358974,4620.51282051,4300.0,4563.07692308,4054.87179487,4562.05128205,4690.25641026,4568.71794872,4675.38461538,4453.33333333,4494.35897436,4343.58974359,4312.30769231,1696.0,1664.0,19.89,0.0,0.0,0.0,0.0,mike,0
3.0,4677.43589744,4576.41025641,4616.41025641,4288.71794872,4555.8974359,4047.17948718,4555.38461538,4684.61538462,4560.0,4672.30769231,4447.17948718,4492.30769231,4340.0,4309.23076923,1694.0,1662.0,19.898,0.0,0.0,0.0,0.0,mike,0
4.0,4675.8974359,4572.30769231,4615.8974359,4283.07692308,4550.76923077,4037.94871795,4554.87179487,4689.23076923,4563.58974359,4671.79487179,4450.76923077,4494.35897436,4341.53846154,4310.25641026,1694.0,1663.0,19.906,0.0,0.0,0.0,0.0,mike,0
5.0,4688.20512821,4585.12820513,4626.66666667,4294.35897436,4558.46153846,4049.23076923,4569.23076923,4704.1025641,4581.53846154,4687.69230769,4469.74358974,4508.71794872,4357.43589744,4321.53846154,1694.0,1662.0,19.914,0.0,0.0,0.0,0.0,mike,0
6.0,4696.92307692,4589.23076923,4635.8974359,4300.0,4558.46153846,4055.38461538,4577.43589744,4709.74358974,4588.20512821,4699.48717949,4481.53846154,4520.0,4369.23076923,4329.23076923,1694.0,1663.0,19.922,0.0,0.0,0.0,0.0,mike,0
7.0,4691.28205128,4584.1025641,4633.33333333,4295.38461538,4550.76923077,4048.20512821,4567.69230769,4702.56410256,4577.94871795,4690.76923077,4472.30769231,4515.8974359,4361.02564103,4329.74358974,1693.0,1662.0,19.929,0.0,0.0,0.0,0.0,mike,0
8.0,4681.53846154,4576.92307692,4623.07692308,4288.71794872,4544.1025641,4042.05128205,4562.05128205,4693.33333333,4568.71794872,4678.46153846,4458.46153846,4504.61538462,4348.20512821,4325.12820513,1693.0,1662.0,19.937,0.0,0.0,0.0,0.0,mike,0
9.0,4684.1025641,4572.30769231,4617.94871795,4287.69230769,4541.53846154,4042.56410256,4565.12820513,4686.66666667,4563.58974359,4674.87179487,4455.38461538,4498.46153846,4344.1025641,4315.8974359,1694.0,1661.0,19.945,0.0,0.0,0.0,0.0,mike,0
10.0,4688.20512821,4572.82051282,4618.97435897,4292.30769231,4552.30769231,4044.1025641,4561.53846154,4682.05128205,4556.92307692,4669.23076923,4455.38461538,4495.38461538,4342.56410256,4310.76923077,1692.0,1662.0,19.953,0.0,0.0,0.0,0.0,mike,0
11.0,4681.02564103,4572.30769231,4616.41025641,4293.33333333,4555.38461538,4041.53846154,4552.30769231,4675.38461538,4550.76923077,4660.0,4445.12820513,4489.23076923,4335.38461538,4307.69230769,1694.0,1661.0,19.961,0.0,0.0,0.0,0.0,mike,0
12.0,4674.87179487,4575.8974359,4614.35897436,4288.71794872,4541.53846154,4039.48717949,4552.30769231,4672.30769231,4551.28205128,4657.43589744,4439.48717949,4485.64102564,4332.30769231,4300.0,1692.0,1661.0,19.968,0.0,0.0,0.0,0.0,mike,0
13.0,4681.53846154,4584.61538462,4616.92307692,4291.79487179,4542.05128205,4042.05128205,4555.38461538,4675.8974359,4554.35897436,4667.69230769,4450.25641026,4493.33333333,4340.0,4301.02564103,1693.0,1662.0,19.976,0.0,0.0,0.0,0.0,mike,0
14.0,4686.15384615,4587.17948718,4618.46153846,4291.28205128,4557.43589744,4045.64102564,4554.35897436,4680.51282051,4556.92307692,4679.48717949,4457.94871795,4500.0,4345.12820513,4311.79487179,1692.0,1661.0,19.984,0.0,0.0,0.0,0.0,mike,0
15.0,4678.46153846,4581.53846154,4614.87179487,4283.07692308,4558.46153846,4046.15384615,4554.87179487,4677.94871795,4559.48717949,4674.87179487,4455.38461538,4494.87179487,4342.05128205,4314.35897436,1692.0,1662.0,19.992,0.0,0.0,0.0,0.0,mike,0
16.0,4677.94871795,4575.38461538,4614.87179487,4286.15384615,4551.28205128,4044.1025641,4553.84615385,4673.33333333,4556.92307692,4664.61538462,4453.84615385,4488.71794872,4343.07692308,4310.25641026,1692.0,1662.0,20.0,0.0,0.0,0.0,0.0,mike,0
17.0,4689.23076923,4576.41025641,4621.53846154,4297.43589744,4553.33333333,4042.56410256,4552.82051282,4677.43589744,4555.8974359,4670.25641026,4457.94871795,4495.8974359,4350.25641026,4313.84615385,1692.0,1662.0,20.008,0.0,0.0,0.0,0.0,mike,0
18.0,4691.79487179,4583.58974359,4624.1025641,4298.97435897,4553.33333333,4042.56410256,4556.92307692,4685.64102564,4561.53846154,4679.48717949,4459.48717949,4506.66666667,4351.79487179,4317.43589744,1692.0,1661.0,20.015,0.0,0.0,0.0,0.0,mike,0
19.0,4687.69230769,4587.17948718,4623.58974359,4295.38461538,4550.76923077,4044.1025641,4558.97435897,4687.17948718,4568.71794872,4678.46153846,4460.0,4507.69230769,4353.84615385,4319.48717949,1692.0,1662.0,20.023,0.0,0.0,0.0,0.0,mike,0
20.0,4695.38461538,4585.64102564,4628.71794872,4296.41025641,4555.8974359,4044.1025641,4556.41025641,4691.79487179,4572.30769231,4679.48717949,4465.12820513,4508.20512821,4360.51282051,4325.12820513,1693.0,1661.0,20.031,0.0,0.0,0.0,0.0,mike,0
21.0,4697.94871795,4586.66666667,4631.79487179,4296.92307692,4558.46153846,4044.1025641,4555.38461538,4696.41025641,4571.79487179,4680.51282051,4465.12820513,4509.23076923,4360.51282051,4329.74358974,1692.0,1662.0,20.039,0.0,0.0,0.0,0.0,mike,0
22.0,4686.66666667,4585.64102564,4625.64102564,4295.8974359,4551.79487179,4044.1025641,4554.87179487,4689.23076923,4569.23076923,4678.46153846,4460.0,4508.20512821,4356.41025641,4326.15384615,1693.0,1661.0,20.047,0.0,0.0,0.0,0.0,mike,0
23.0,4690.25641026,4585.64102564,4627.69230769,4295.8974359,4547.69230769,4042.56410256,4553.33333333,4683.58974359,4569.74358974,4682.56410256,4465.64102564,4508.20512821,4356.92307692,4324.1025641,1692.0,1662.0,20.054,0.0,0.0,0.0,0.0,mike,0
24.0,4702.56410256,4589.23076923,4636.92307692,4303.07692308,4551.79487179,4042.05128205,4554.87179487,4688.71794872,4573.33333333,4687.17948718,4473.84615385,4509.74358974,4360.0,4328.71794872,1694.0,1662.0,20.062,0.0,0.0,0.0,0.0,mike,0
25.0,4697.94871795,4588.20512821,4635.38461538,4305.12820513,4555.8974359,4045.12820513,4556.41025641,4688.71794872,4570.76923077,4680.0,4465.12820513,4508.71794872,4355.38461538,4323.58974359,1693.0,1661.0,20.07,0.0,0.0,0.0,0.0,mike,0
26.0,4690.25641026,4587.69230769,4627.69230769,4297.94871795,4555.38461538,4045.64102564,4555.8974359,4685.64102564,4567.69230769,4672.30769231,4456.92307692,4505.64102564,4350.25641026,4313.84615385,1693.0,1663.0,20.078,0.0,0.0,0.0,0.0,mike,0
27.0,4689.23076923,4584.1025641,4621.02564103,4292.30769231,4553.33333333,4043.58974359,4556.92307692,4685.64102564,4567.17948718,4672.30769231,4457.94871795,4498.97435897,4347.69230769,4307.69230769,1694.0,1662.0,20.086,0.0,0.0,0.0,0.0,mike,0
28.0,4676.41025641,4572.30769231,4614.87179487,4289.23076923,4550.76923077,4043.07692308,4556.92307692,4678.46153846,4558.46153846,4667.69230769,4448.71794872,4486.66666667,4339.48717949,4301.02564103,1694.0,1662.0,20.094,0.0,0.0,0.0,0.0,mike,0
29.0,4670.76923077,4569.74358974,4612.82051282,4287.17948718,4550.25641026,4046.15384615,4555.8974359,4676.92307692,4554.35897436,4663.58974359,4442.05128205,4485.64102564,4332.82051282,4297.94871795,1695.0,1662.0,20.101,0.0,0.0,0.0,0.0,mike,0
30.0,4687.17948718,4580.0,4622.05128205,4290.76923077,4551.28205128,4047.17948718,4555.8974359,4688.20512821,4562.56410256,4670.25641026,4453.84615385,4500.0,4340.51282051,4306.66666667,1694.0,1663.0,20.109,0.0,0.0,0.0,0.0,mike,0
31.0,4697.43589744,4583.58974359,4631.28205128,4294.87179487,4549.74358974,4044.1025641,4556.41025641,4688.20512821,4567.17948718,4672.82051282,4461.02564103,4507.17948718,4349.23076923,4318.97435897,1695.0,1663.0,20.117,0.0,0.0,0.0,0.0,mike,0
32.0,4697.94871795,4584.1025641,4633.84615385,4295.38461538,4553.33333333,4045.64102564,4561.02564103,4684.1025641,4566.66666667,4674.87179487,4463.07692308,4510.76923077,4354.87179487,4326.15384615,1694.0,1662.0,20.125,0.0,0.0,0.0,0.0,mike,0
33.0,4701.02564103,4586.15384615,4633.84615385,4297.43589744,4559.48717949,4051.28205128,4567.69230769,4691.79487179,4570.25641026,4684.1025641,4471.28205128,4517.94871795,4360.0,4328.71794872,1695.0,1662.0,20.133,0.0,0.0,0.0,0.0,mike,0
34.0,4705.64102564,4577.94871795,4635.8974359,4296.41025641,4552.30769231,4052.30769231,4571.79487179,4700.0,4580.0,4688.71794872,4476.41025641,4522.05128205,4362.56410256,4329.23076923,1694.0,1662.0,20.14,0.0,0.0,0.0,0.0,mike,0
35.0,4704.61538462,4569.23076923,4637.43589744,4296.92307692,4546.66666667,4051.28205128,4569.74358974,4702.56410256,4587.69230769,4690.76923077,4475.8974359,4521.53846154,4365.12820513,4331.28205128,1695.0,1663.0,20.148,0.0,0.0,0.0,0.0,mike,0
36.0,4689.23076923,4570.25641026,4627.17948718,4292.30769231,4554.35897436,4049.74358974,4563.58974359,4697.94871795,4583.07692308,4692.30769231,4470.76923077,4513.84615385,4361.02564103,4323.58974359,1694.0,1662.0,20.156,0.0,0.0,0.0,0.0,mike,0
37.0,4676.92307692,4570.76923077,4616.41025641,4284.1025641,4546.66666667,4040.0,4553.84615385,4683.07692308,4568.71794872,4678.46153846,4461.53846154,4497.94871795,4347.17948718,4310.25641026,1694.0,1663.0,20.164,0.0,0.0,0.0,0.0,mike,0
38.0,4678.97435897,4569.23076923,4615.8974359,4286.66666667,4531.79487179,4032.30769231,4544.61538462,4674.87179487,4558.46153846,4665.12820513,4455.38461538,4488.71794872,4345.12820513,4306.66666667,1695.0,1662.0,20.172,0.0,0.0,0.0,0.0,mike,0
39.0,4672.30769231,4572.30769231,4611.79487179,4288.71794872,4545.12820513,4035.38461538,4540.51282051,4678.46153846,4555.38461538,4668.20512821,4455.8974359,4491.28205128,4349.23076923,4305.12820513,1693.0,1664.0,20.18,0.0,0.0,0.0,0.0,mike,0
40.0,4661.02564103,4573.33333333,4605.64102564,4285.12820513,4562.05128205,4035.8974359,4537.94871795,4677.43589744,4555.8974359,4672.30769231,4457.43589744,4491.79487179,4343.07692308,4304.1025641,1695.0,1663.0,20.187,0.0,0.0,0.0,0.0,mike,0
41.0,4672.82051282,4572.30769231,4611.28205128,4289.74358974,4553.84615385,4033.84615385,4537.43589744,4672.30769231,4556.92307692,4670.76923077,4454.87179487,4490.76923077,4339.48717949,4306.66666667,1693.0,1663.0,20.195,0.0,0.0,0.0,0.0,mike,0
42.0,4688.71794872,4577.94871795,4619.48717949,4297.43589744,4548.71794872,4033.33333333,4538.46153846,4672.82051282,4552.30769231,4670.76923077,4451.28205128,4490.25641026,4342.05128205,4310.25641026,1693.0,1664.0,20.203,0.0,0.0,0.0,0.0,mike,0
43.0,4690.25641026,4584.61538462,4623.07692308,4297.43589744,4554.35897436,4033.33333333,4539.48717949,4674.35897436,4555.38461538,4671.79487179,4454.35897436,4492.30769231,4343.58974359,4311.79487179,1693.0,1663.0,20.211,0.0,0.0,0.0,0.0,mike,0
44.0,4692.30769231,4592.30769231,4628.20512821,4299.48717949,4553.33333333,4038.46153846,4542.05128205,4680.0,4568.71794872,4676.92307692,4461.53846154,4496.41025641,4350.76923077,4314.87179487,1693.0,1663.0,20.219,0.0,0.0,0.0,0.0,mike,0
45.0,4691.79487179,4588.71794872,4624.1025641,4297.94871795,4551.28205128,4042.05128205,4543.07692308,4682.56410256,4570.76923077,4681.02564103,4460.51282051,4495.38461538,4350.76923077,4313.33333333,1693.0,1663.0,20.227,0.0,0.0,0.0,0.0,mike,0
46.0,4686.15384615,4574.35897436,4615.38461538,4287.17948718,4551.28205128,4034.87179487,4540.0,4677.43589744,4562.05128205,4676.41025641,4454.87179487,4488.71794872,4340.0,4308.20512821,1693.0,1663.0,20.234,0.0,0.0,0.0,0.0,mike,0
47.0,4688.20512821,4573.33333333,4620.0,4290.25641026,4551.28205128,4031.79487179,4545.12820513,4681.02564103,4566.15384615,4677.43589744,4457.94871795,4492.82051282,4344.1025641,4312.82051282,1693.0,1662.0,20.242,0.0,0.0,0.0,0.0,mike,0
48.0,4689.23076923,4579.48717949,4626.15384615,4294.35897436,4551.28205128,4037.94871795,4554.35897436,4688.20512821,4572.30769231,4682.05128205,4462.05128205,4502.05128205,4353.33333333,4318.46153846,1694.0,1662.0,20.25,0.0,0.0,0.0,0.0,mike,0
49.0,4680.0,4572.30769231,4618.46153846,4285.64102564,4552.30769231,4037.43589744,4546.15384615,4678.46153846,4560.0,4673.84615385,4453.33333333,4498.97435897,4342.05128205,4309.74358974,1693.0,1662.0,20.258,0.0,0.0,0.0,0.0,mike,0
50.0,4668.20512821,4564.1025641,4603.07692308,4278.97435897,4548.20512821,4031.28205128,4532.82051282,4664.61538462,4548.71794872,4662.05128205,4442.56410256,4482.05128205,4325.64102564,4294.87179487,1693.0,1661.0,20.266,0.0,0.0,0.0,0.0,mike,0
51.0,4664.61538462,4567.69230769,4599.48717949,4280.51282051,4543.07692308,4033.84615385,4533.84615385,4668.20512821,4554.35897436,4660.51282051,4439.48717949,4475.8974359,4322.56410256,4288.71794872,1692.0,1661.0,20.273,0.0,0.0,0.0,0.0,mike,0
52.0,4669.23076923,4570.76923077,4608.71794872,4281.53846154,4546.15384615,4035.8974359,4538.46153846,4673.84615385,4556.92307692,4665.64102564,4441.02564103,4483.58974359,4325.12820513,4289.23076923,1694.0,1661.0,20.281,0.0,0.0,0.0,0.0,mike,0
53.0,4680.0,4576.92307692,4617.43589744,4284.1025641,4551.79487179,4033.84615385,4538.46153846,4669.74358974,4554.35897436,4669.74358974,4447.17948718,4490.25641026,4331.79487179,4300.0,1692.0,1661.0,20.289,0.0,0.0,0.0,0.0,mike,0
54.0,4693.84615385,4586.66666667,4624.1025641,4294.87179487,4554.87179487,4037.94871795,4540.51282051,4674.35897436,4562.56410256,4674.87179487,4457.43589744,4498.97435897,4346.15384615,4319.48717949,1693.0,1662.0,20.297,0.0,0.0,0.0,0.0,mike,0
55.0,4695.8974359,4582.56410256,4625.12820513,4296.92307692,4551.79487179,4041.53846154,4541.53846154,4683.58974359,4571.28205128,4679.48717949,4461.53846154,4505.12820513,4352.30769231,4325.12820513,1693.0,1661.0,20.305,0.0,0.0,0.0,0.0,mike,0
56.0,4686.66666667,4573.33333333,4617.94871795,4286.15384615,4544.1025641,4036.41025641,4541.02564103,4682.56410256,4569.74358974,4681.02564103,4458.46153846,4497.94871795,4347.17948718,4320.51282051,1693.0,1662.0,20.313,0.0,0.0,0.0,0.0,mike,0
57.0,4683.07692308,4569.74358974,4610.76923077,4280.51282051,4539.48717949,4033.84615385,4541.53846154,4675.8974359,4567.17948718,4677.94871795,4460.0,4491.28205128,4346.66666667,4320.0,1695.0,1661.0,20.319,0.0,0.0,0.0,0.0,mike,0
58.0,4686.66666667,4572.30769231,4613.33333333,4287.17948718,4546.66666667,4035.8974359,4537.43589744,4674.35897436,4567.69230769,4680.0,4462.05128205,4501.02564103,4352.30769231,4324.1025641,1693.0,1661.0,20.328,0.0,0.0,0.0,0.0,mike,0
59.0,4687.17948718,4574.35897436,4617.43589744,4291.79487179,4556.41025641,4035.8974359,4529.74358974,4678.46153846,4568.20512821,4684.61538462,4461.02564103,4504.61538462,4352.82051282,4323.07692308,1695.0,1660.0,20.336,0.0,0.0,0.0,0.0,mike,0
60.0,4686.15384615,4572.82051282,4617.43589744,4288.20512821,4547.69230769,4034.87179487,4524.61538462,4680.0,4568.20512821,4681.02564103,4458.46153846,4494.35897436,4346.66666667,4315.8974359,1694.0,1660.0,20.344,0.0,0.0,0.0,0.0,mike,0
61.0,4689.23076923,4576.41025641,4618.46153846,4290.25641026,4543.07692308,4035.38461538,4524.1025641,4680.0,4569.23076923,4677.94871795,4459.48717949,4489.74358974,4345.12820513,4309.23076923,1693.0,1661.0,20.352,0.0,0.0,0.0,0.0,mike,0
62.0,4691.28205128,4582.56410256,4621.53846154,4295.8974359,4551.28205128,4036.92307692,4525.64102564,4678.97435897,4568.20512821,4678.97435897,4459.48717949,4490.76923077,4347.17948718,4307.69230769,1693.0,1661.0,20.359,0.0,0.0,0.0,0.0,mike,0
63.0,4693.84615385,4588.20512821,4627.69230769,4296.41025641,4550.25641026,4041.53846154,4528.71794872,4681.53846154,4565.64102564,4678.97435897,4457.94871795,4496.41025641,4351.28205128,4310.76923077,1693.0,1662.0,20.367,0.0,0.0,0.0,0.0,mike,0
64.0,4698.46153846,4592.30769231,4631.79487179,4298.97435897,4547.69230769,4046.66666667,4536.92307692,4690.25641026,4571.79487179,4685.64102564,4467.17948718,4505.12820513,4360.0,4321.02564103,1692.0,1661.0,20.375,0.0,0.0,0.0,0.0,mike,0
65.0,4701.02564103,4592.30769231,4633.33333333,4302.56410256,4557.43589744,4046.66666667,4542.56410256,4697.94871795,4582.56410256,4695.8974359,4479.48717949,4511.28205128,4365.64102564,4331.28205128,1693.0,1662.0,20.383,0.0,0.0,0.0,0.0,mike,0
66.0,4698.97435897,4586.66666667,4629.74358974,4299.48717949,4564.1025641,4041.53846154,4537.43589744,4693.84615385,4580.51282051,4692.30769231,4470.76923077,4506.66666667,4361.02564103,4324.1025641,1692.0,1661.0,20.391,0.0,0.0,0.0,0.0,mike,0
67.0,4688.71794872,4576.92307692,4621.53846154,4288.71794872,4549.23076923,4034.87179487,4525.64102564,4680.0,4564.61538462,4677.94871795,4456.41025641,4495.38461538,4348.71794872,4309.23076923,1691.0,1662.0,20.399,0.0,0.0,0.0,0.0,mike,0
68.0,4681.02564103,4569.23076923,4615.8974359,4280.0,4538.46153846,4033.33333333,4522.05128205,4673.33333333,4555.8974359,4672.30769231,4452.30769231,4490.76923077,4341.02564103,4306.15384615,1693.0,1662.0,20.406,0.0,0.0,0.0,0.0,mike,0
69.0,4684.61538462,4568.71794872,4616.41025641,4284.61538462,4548.20512821,4035.8974359,4530.76923077,4675.8974359,4556.41025641,4672.82051282,4451.79487179,4492.30769231,4340.51282051,4310.25641026,1692.0,1663.0,20.414,0.0,0.0,0.0,0.0,mike,0
70.0,4688.20512821,4574.35897436,4618.46153846,4292.82051282,4555.38461538,4038.46153846,4533.33333333,4676.41025641,4555.8974359,4673.84615385,4453.84615385,4493.33333333,4342.56410256,4312.82051282,1693.0,1663.0,20.422,0.0,0.0,0.0,0.0,mike,0
71.0,4682.56410256,4572.30769231,4615.8974359,4284.61538462,4550.76923077,4036.41025641,4524.61538462,4668.71794872,4553.33333333,4671.79487179,4450.76923077,4491.28205128,4340.0,4308.71794872,1692.0,1664.0,20.43,0.0,0.0,0.0,0.0,mike,0
72.0,4681.53846154,4564.61538462,4614.87179487,4277.43589744,4551.28205128,4031.28205128,4520.0,4664.61538462,4552.30769231,4667.69230769,4444.61538462,4490.25641026,4338.97435897,4307.17948718,1694.0,1664.0,20.438,0.0,0.0,0.0,0.0,mike,0
73.0,4687.69230769,4566.66666667,4617.94871795,4290.25641026,4552.30769231,4030.76923077,4522.56410256,4670.25641026,4555.8974359,4672.30769231,4451.28205128,4491.79487179,4342.05128205,4314.35897436,1693.0,1663.0,20.445,0.0,0.0,0.0,0.0,mike,0
74.0,4688.71794872,4573.33333333,4619.48717949,4297.43589744,4544.1025641,4034.87179487,4528.71794872,4677.94871795,4558.97435897,4680.51282051,4461.02564103,4495.8974359,4342.56410256,4319.48717949,1693.0,1664.0,20.453,0.0,0.0,0.0,0.0,mike,0
75.0,4690.25641026,4575.38461538,4621.02564103,4291.28205128,4549.74358974,4038.46153846,4534.87179487,4678.97435897,4556.92307692,4677.94871795,4454.35897436,4496.41025641,4343.58974359,4313.84615385,1693.0,1664.0,20.461,0.0,0.0,0.0,0.0,mike,0
76.0,4690.76923077,4573.84615385,4623.07692308,4287.17948718,4557.94871795,4036.41025641,4536.92307692,4674.35897436,4555.38461538,4671.79487179,4447.69230769,4494.35897436,4344.61538462,4311.28205128,1693.0,1664.0,20.468,0.0,0.0,0.0,0.0,mike,0
77.0,4682.05128205,4567.69230769,4618.46153846,4285.12820513,4541.53846154,4028.71794872,4535.38461538,4670.76923077,4554.87179487,4670.76923077,4449.74358974,4493.33333333,4340.0,4312.82051282,1693.0,1664.0,20.477,0.0,0.0,0.0,0.0,mike,0
78.0,4677.94871795,4563.07692308,4612.82051282,4281.02564103,4534.87179487,4026.66666667,4537.43589744,4674.35897436,4554.35897436,4672.30769231,4449.23076923,4493.84615385,4338.46153846,4309.74358974,1693.0,1664.0,20.485,0.0,0.0,0.0,0.0,mike,0
79.0,4681.53846154,4564.61538462,4614.87179487,4280.0,4544.1025641,4030.76923077,4540.0,4677.43589744,4558.46153846,4674.35897436,4450.76923077,4494.87179487,4344.61538462,4310.76923077,1694.0,1662.0,20.492,0.0,0.0,0.0,0.0,mike,0
80.0,4681.02564103,4562.05128205,4610.25641026,4281.53846154,4539.48717949,4030.76923077,4536.41025641,4667.69230769,4553.84615385,4670.76923077,4450.25641026,4492.30769231,4340.0,4311.79487179,1692.0,1663.0,20.5,0.0,0.0,0.0,0.0,mike,0
81.0,4674.35897436,4560.51282051,4599.48717949,4277.94871795,4536.92307692,4025.64102564,4534.87179487,4656.41025641,4540.0,4661.02564103,4444.61538462,4485.12820513,4326.66666667,4302.05128205,1694.0,1663.0,20.508,0.0,0.0,0.0,0.0,mike,0
82.0,4676.41025641,4568.71794872,4605.12820513,4280.51282051,4545.64102564,4027.17948718,4538.46153846,4662.05128205,4544.61538462,4664.1025641,4443.58974359,4486.15384615,4331.79487179,4298.97435897,1693.0,1662.0,20.516,0.0,0.0,0.0,0.0,mike,0
83.0,4683.07692308,4575.38461538,4616.92307692,4288.71794872,4542.56410256,4035.38461538,4542.56410256,4672.82051282,4558.97435897,4676.41025641,4448.71794872,4493.33333333,4344.1025641,4310.76923077,1694.0,1663.0,20.524,0.0,0.0,0.0,0.0,mike,0
84.0,4679.48717949,4569.23076923,4614.35897436,4284.61538462,4537.43589744,4036.41025641,4540.51282051,4669.74358974,4552.82051282,4670.76923077,4452.30769231,4492.82051282,4339.48717949,4312.30769231,1694.0,1661.0,20.531,0.0,0.0,0.0,0.0,mike,0
85.0,4676.92307692,4564.61538462,4610.76923077,4280.0,4542.05128205,4027.69230769,4537.94871795,4670.76923077,4548.71794872,4668.20512821,4454.35897436,4492.30769231,4338.46153846,4306.66666667,1694.0,1662.0,20.539,0.0,0.0,0.0,0.0,mike,0
86.0,4689.23076923,4574.87179487,4620.51282051,4291.28205128,4544.1025641,4028.71794872,4546.15384615,4684.1025641,4565.64102564,4684.1025641,4462.56410256,4504.1025641,4354.87179487,4316.41025641,1694.0,1662.0,20.547,0.0,0.0,0.0,0.0,mike,0
87.0,4698.97435897,4585.64102564,4626.66666667,4303.07692308,4551.28205128,4044.1025641,4555.38461538,4687.69230769,4570.76923077,4690.76923077,4467.69230769,4512.30769231,4361.53846154,4330.25641026,1694.0,1663.0,20.555,0.0,0.0,0.0,0.0,mike,0
88.0,4692.82051282,4578.97435897,4620.0,4293.33333333,4561.02564103,4044.1025641,4554.87179487,4677.94871795,4555.38461538,4681.53846154,4463.07692308,4504.61538462,4352.82051282,4326.66666667,1695.0,1662.0,20.563,0.0,0.0,0.0,0.0,mike,0
89.0,4687.69230769,4565.12820513,4615.38461538,4280.51282051,4555.38461538,4032.82051282,4551.79487179,4675.8974359,4549.74358974,4677.43589744,4457.43589744,4498.46153846,4347.17948718,4321.02564103,1694.0,1662.0,20.571,0.0,0.0,0.0,0.0,mike,0
