COUNTER,AF3,F7,F3,FC5,T7,P7,O1,O2,P8,T8,FC6,F4,F8,AF4,GYROX,GYROY,TIMESTAMP,FUNC_ID,FUNC_VALUE,MARKER,SYNC_SIGNAL,USER,CLASS
40.0,4877.43589744,4638.97435897,4665.64102564,4393.84615385,4598.97435897,4080.51282051,4544.61538462,4810.25641026,4663.07692308,4797.43589744,4602.05128205,4637.43589744,4508.20512821,4457.43589744,1696.0,1662.0,20.581,0.0,0.0,0.0,0.0,mike,0
41.0,4871.28205128,4637.94871795,4661.53846154,4392.30769231,4609.74358974,4084.61538462,4550.76923077,4808.20512821,4657.94871795,4796.41025641,4598.46153846,4635.38461538,4504.61538462,4453.33333333,1697.0,1661.0,20.589,0.0,0.0,0.0,0.0,mike,0
42.0,4897.43589744,4652.30769231,4673.84615385,4398.46153846,4624.1025641,4096.41025641,4589.23076923,4816.92307692,4665.64102564,4807.17948718,4604.1025641,4643.07692308,4520.51282051,4470.76923077,1696.0,1662.0,20.597,0.0,0.0,0.0,0.0,mike,0
43.0,4910.76923077,4659.48717949,4695.38461538,4408.71794872,4607.69230769,4095.38461538,4641.02564103,4825.12820513,4674.35897436,4815.38461538,4615.38461538,4652.30769231,4529.23076923,4489.23076923,1696.0,1661.0,20.605,0.0,0.0,0.0,0.0,mike,0
44.0,4893.84615385,4657.43589744,4695.38461538,4412.30769231,4607.69230769,4094.35897436,4661.53846154,4818.46153846,4674.87179487,4816.41025641,4618.46153846,4658.46153846,4528.71794872,4488.20512821,1697.0,1662.0,20.612,0.0,0.0,0.0,0.0,mike,0
45.0,4885.64102564,4655.38461538,4677.43589744,4408.20512821,4636.41025641,4101.53846154,4666.15384615,4811.28205128,4671.79487179,4814.35897436,4616.41025641,4655.8974359,4525.64102564,4474.87179487,1697.0,1662.0,20.62,0.0,0.0,0.0,0.0,mike,0
46.0,4888.71794872,4648.71794872,4677.43589744,4406.15384615,4627.69230769,4100.51282051,4688.20512821,4817.94871795,4670.76923077,4810.76923077,4614.35897436,4646.15384615,4525.12820513,4470.76923077,1698.0,1662.0,20.628,0.0,0.0,0.0,0.0,mike,0
47.0,4895.38461538,4647.17948718,4695.38461538,4408.71794872,4610.25641026,4101.02564103,4716.92307692,4829.74358974,4676.41025641,4814.35897436,4618.97435897,4652.82051282,4532.82051282,4487.17948718,1697.0,1661.0,20.636,0.0,0.0,0.0,0.0,mike,0
48.0,4905.12820513,4650.25641026,4695.8974359,4405.12820513,4628.20512821,4105.64102564,4724.1025641,4832.82051282,4678.46153846,4815.38461538,4619.48717949,4665.64102564,4534.35897436,4488.71794872,1698.0,1661.0,20.644,0.0,0.0,0.0,0.0,mike,0
49.0,4900.0,4642.05128205,4675.8974359,4396.41025641,4625.64102564,4095.8974359,4712.82051282,4823.07692308,4666.66666667,4803.07692308,4611.79487179,4654.87179487,4522.56410256,4470.76923077,1699.0,1661.0,20.651,0.0,0.0,0.0,0.0,mike,0
50.0,4887.17948718,4638.97435897,4675.8974359,4396.92307692,4592.82051282,4085.64102564,4709.23076923,4821.53846154,4664.1025641,4798.46153846,4611.28205128,4644.1025641,4520.51282051,4467.69230769,1698.0,1662.0,20.659,0.0,0.0,0.0,0.0,mike,0
51.0,4887.69230769,4647.17948718,4688.20512821,4404.1025641,4596.92307692,4095.38461538,4716.92307692,4828.20512821,4676.41025641,4812.82051282,4618.97435897,4650.76923077,4526.66666667,4476.41025641,1698.0,1661.0,20.667,0.0,0.0,0.0,0.0,mike,0
52.0,4889.23076923,4647.17948718,4681.02564103,4402.56410256,4629.74358974,4102.05128205,4715.38461538,4821.02564103,4674.35897436,4815.38461538,4614.87179487,4650.76923077,4523.58974359,4477.94871795,1699.0,1663.0,20.675,0.0,0.0,0.0,0.0,mike,0
53.0,4887.17948718,4643.58974359,4671.79487179,4398.46153846,4626.66666667,4096.92307692,4708.71794872,4809.23076923,4663.07692308,4799.48717949,4604.1025641,4643.58974359,4518.46153846,4469.74358974,1699.0,1662.0,20.683,0.0,0.0,0.0,0.0,mike,0
54.0,4891.28205128,4646.15384615,4682.56410256,4401.02564103,4603.07692308,4097.43589744,4706.15384615,4810.76923077,4662.05128205,4798.46153846,4607.17948718,4644.1025641,4520.51282051,4466.15384615,1698.0,1662.0,20.69,0.0,0.0,0.0,0.0,mike,0
55.0,4894.35897436,4650.25641026,4691.79487179,4404.61538462,4612.30769231,4101.53846154,4706.15384615,4817.94871795,4665.12820513,4813.33333333,4617.43589744,4652.30769231,4523.58974359,4471.79487179,1700.0,1661.0,20.698,0.0,0.0,0.0,0.0,mike,0
56.0,4891.28205128,4648.20512821,4682.56410256,4404.1025641,4612.82051282,4093.84615385,4701.53846154,4816.41025641,4663.58974359,4811.79487179,4611.79487179,4654.87179487,4523.07692308,4470.76923077,1698.0,1661.0,20.706,0.0,0.0,0.0,0.0,mike,0
57.0,4889.74358974,4639.48717949,4674.87179487,4399.48717949,4591.28205128,4084.1025641,4690.25641026,4806.66666667,4656.41025641,4796.41025641,4601.53846154,4643.58974359,4520.0,4462.05128205,1700.0,1661.0,20.714,0.0,0.0,0.0,0.0,mike,0
58.0,4889.23076923,4635.8974359,4676.92307692,4395.8974359,4607.17948718,4088.20512821,4685.12820513,4803.58974359,4656.41025641,4798.97435897,4609.74358974,4636.41025641,4520.0,4468.71794872,1700.0,1660.0,20.722,0.0,0.0,0.0,0.0,mike,0
59.0,4890.25641026,4641.53846154,4680.0,4398.46153846,4637.43589744,4097.43589744,4693.84615385,4814.35897436,4669.23076923,4814.87179487,4622.56410256,4648.71794872,4524.1025641,4481.02564103,1700.0,1663.0,20.73,0.0,0.0,0.0,0.0,mike,0
60.0,4889.74358974,4643.58974359,4683.07692308,4402.05128205,4624.61538462,4096.92307692,4700.0,4818.46153846,4672.82051282,4815.38461538,4618.97435897,4654.87179487,4524.61538462,4477.43589744,1699.0,1662.0,20.737,0.0,0.0,0.0,0.0,mike,0
61.0,4888.20512821,4642.05128205,4684.1025641,4397.94871795,4604.1025641,4092.30769231,4694.87179487,4810.76923077,4664.1025641,4808.71794872,4613.33333333,4647.17948718,4521.53846154,4473.84615385,1699.0,1662.0,20.745,0.0,0.0,0.0,0.0,mike,0
62.0,4889.23076923,4644.61538462,4685.12820513,4395.8974359,4607.17948718,4091.79487179,4689.23076923,4811.79487179,4666.15384615,4809.74358974,4617.43589744,4650.25641026,4525.12820513,4474.35897436,1699.0,1661.0,20.753,0.0,0.0,0.0,0.0,mike,0
63.0,4893.84615385,4645.64102564,4687.69230769,4401.53846154,4606.15384615,4092.30769231,4688.20512821,4817.94871795,4674.35897436,4812.82051282,4618.97435897,4661.02564103,4533.84615385,4472.82051282,1698.0,1661.0,20.761,0.0,0.0,0.0,0.0,mike,0
64.0,4893.33333333,4645.64102564,4685.12820513,4404.61538462,4609.23076923,4092.30769231,4687.17948718,4814.87179487,4672.82051282,4812.82051282,4618.46153846,4657.43589744,4535.8974359,4477.43589744,1698.0,1661.0,20.769,0.0,0.0,0.0,0.0,mike,0
65.0,4890.76923077,4648.20512821,4681.02564103,4403.07692308,4623.58974359,4091.79487179,4684.1025641,4812.30769231,4668.71794872,4812.82051282,4618.46153846,4650.25641026,4534.87179487,4481.02564103,1697.0,1662.0,20.776,0.0,0.0,0.0,0.0,mike,0
66.0,4892.82051282,4649.74358974,4683.07692308,4402.56410256,4626.15384615,4091.28205128,4679.48717949,4814.35897436,4666.15384615,4814.35897436,4618.46153846,4652.82051282,4534.35897436,4478.97435897,1697.0,1662.0,20.784,0.0,0.0,0.0,0.0,mike,0
67.0,4892.30769231,4648.71794872,4686.66666667,4401.53846154,4618.46153846,4087.17948718,4672.30769231,4806.66666667,4662.05128205,4813.33333333,4617.43589744,4653.33333333,4528.20512821,4473.33333333,1696.0,1661.0,20.792,0.0,0.0,0.0,0.0,mike,0
68.0,4887.69230769,4641.02564103,4681.02564103,4396.41025641,4612.82051282,4081.53846154,4666.15384615,4795.38461538,4656.92307692,4808.71794872,4615.8974359,4643.07692308,4520.51282051,4471.28205128,1697.0,1663.0,20.8,0.0,0.0,0.0,0.0,mike,0
69.0,4886.66666667,4641.02564103,4679.48717949,4396.92307692,4610.76923077,4084.1025641,4671.28205128,4802.56410256,4657.94871795,4807.69230769,4617.94871795,4643.07692308,4522.56410256,4476.41025641,1697.0,1662.0,20.808,0.0,0.0,0.0,0.0,mike,0
70.0,4888.71794872,4649.23076923,4687.17948718,4403.58974359,4603.07692308,4090.25641026,4680.51282051,4815.38461538,4664.61538462,4812.82051282,4618.46153846,4654.87179487,4526.15384615,4476.41025641,1696.0,1663.0,20.816,0.0,0.0,0.0,0.0,mike,0
71.0,4892.30769231,4645.64102564,4690.76923077,4405.12820513,4606.15384615,4091.28205128,4678.97435897,4812.82051282,4666.66666667,4814.35897436,4610.76923077,4654.87179487,4524.1025641,4472.30769231,1697.0,1663.0,20.823,0.0,0.0,0.0,0.0,mike,0
72.0,4892.82051282,4636.92307692,4686.66666667,4401.53846154,4615.8974359,4090.25641026,4673.33333333,4809.74358974,4663.58974359,4811.28205128,4604.1025641,4646.15384615,4522.05128205,4471.79487179,1696.0,1663.0,20.831,0.0,0.0,0.0,0.0,mike,0
73.0,4888.71794872,4641.53846154,4684.1025641,4398.97435897,4614.87179487,4092.82051282,4675.38461538,4815.38461538,4665.64102564,4811.28205128,4608.71794872,4646.15384615,4522.56410256,4473.84615385,1697.0,1663.0,20.839,0.0,0.0,0.0,0.0,mike,0
74.0,4889.74358974,4648.71794872,4686.15384615,4403.07692308,4616.92307692,4096.92307692,4681.02564103,4816.41025641,4671.79487179,4814.35897436,4617.43589744,4653.33333333,4527.69230769,4482.56410256,1696.0,1663.0,20.847,0.0,0.0,0.0,0.0,mike,0
75.0,4896.92307692,4648.20512821,4687.17948718,4402.56410256,4626.15384615,4097.43589744,4681.02564103,4814.87179487,4672.82051282,4817.94871795,4616.92307692,4657.43589744,4534.35897436,4489.23076923,1696.0,1664.0,20.855,0.0,0.0,0.0,0.0,mike,0
76.0,4895.8974359,4646.15384615,4689.23076923,4397.43589744,4615.8974359,4093.84615385,4677.94871795,4814.35897436,4671.79487179,4816.92307692,4613.33333333,4658.46153846,4531.79487179,4480.51282051,1695.0,1664.0,20.863,0.0,0.0,0.0,0.0,mike,0
77.0,4891.79487179,4644.61538462,4693.33333333,4398.97435897,4607.17948718,4095.38461538,4679.48717949,4813.33333333,4671.28205128,4815.8974359,4614.35897436,4658.97435897,4524.61538462,4470.76923077,1697.0,1664.0,20.87,0.0,0.0,0.0,0.0,mike,0
78.0,4902.05128205,4646.66666667,4693.84615385,4403.07692308,4622.56410256,4099.48717949,4681.53846154,4813.33333333,4673.33333333,4822.05128205,4616.92307692,4659.48717949,4529.74358974,4480.51282051,1696.0,1664.0,20.878,0.0,0.0,0.0,0.0,mike,0
79.0,4908.71794872,4648.71794872,4691.79487179,4401.53846154,4625.12820513,4095.38461538,4679.48717949,4813.33333333,4676.41025641,4828.20512821,4616.41025641,4662.56410256,4538.46153846,4493.84615385,1696.0,1665.0,20.886,0.0,0.0,0.0,0.0,mike,0
80.0,4896.92307692,4642.05128205,4692.30769231,4400.0,4615.8974359,4094.87179487,4679.48717949,4813.33333333,4675.8974359,4827.69230769,4618.97435897,4665.64102564,4540.0,4492.30769231,1696.0,1665.0,20.894,0.0,0.0,0.0,0.0,mike,0
81.0,4887.69230769,4636.41025641,4691.79487179,4401.53846154,4617.43589744,4099.48717949,4683.07692308,4812.82051282,4671.28205128,4822.05128205,4615.8974359,4664.1025641,4533.33333333,4482.56410256,1696.0,1665.0,20.902,0.0,0.0,0.0,0.0,mike,0
82.0,4886.15384615,4639.48717949,4685.12820513,4398.97435897,4611.79487179,4097.94871795,4685.64102564,4812.30769231,4669.23076923,4815.38461538,4608.20512821,4656.92307692,4525.12820513,4474.87179487,1696.0,1665.0,20.909,0.0,0.0,0.0,0.0,mike,0
83.0,4889.23076923,4646.15384615,4684.1025641,4400.0,4605.64102564,4099.48717949,4688.71794872,4813.33333333,4671.28205128,4817.43589744,4610.25641026,4656.41025641,4524.1025641,4473.84615385,1696.0,1664.0,20.917,0.0,0.0,0.0,0.0,mike,0
84.0,4893.33333333,4646.66666667,4689.23076923,4403.07692308,4617.43589744,4105.12820513,4690.25641026,4814.87179487,4671.28205128,4820.0,4610.76923077,4657.94871795,4525.12820513,4476.41025641,1697.0,1664.0,20.925,0.0,0.0,0.0,0.0,mike,0
85.0,4887.17948718,4637.43589744,4685.12820513,4396.41025641,4621.53846154,4097.94871795,4683.07692308,4812.82051282,4665.64102564,4814.87179487,4602.56410256,4650.25641026,4523.07692308,4474.35897436,1696.0,1664.0,20.933,0.0,0.0,0.0,0.0,mike,0
86.0,4881.53846154,4635.38461538,4678.97435897,4392.82051282,4608.71794872,4088.20512821,4672.30769231,4809.23076923,4660.51282051,4813.84615385,4603.07692308,4644.61538462,4521.02564103,4473.33333333,1696.0,1664.0,20.941,0.0,0.0,0.0,0.0,mike,0
87.0,4896.92307692,4651.28205128,4687.69230769,4404.61538462,4613.33333333,4092.82051282,4673.33333333,4809.74358974,4665.12820513,4824.61538462,4612.82051282,4651.79487179,4525.64102564,4481.53846154,1696.0,1663.0,20.949,0.0,0.0,0.0,0.0,mike,0
88.0,4914.87179487,4662.56410256,4704.1025641,4415.38461538,4631.28205128,4102.05128205,4682.05128205,4812.82051282,4674.35897436,4831.79487179,4618.46153846,4661.02564103,4535.38461538,4491.28205128,1696.0,1664.0,20.956,0.0,0.0,0.0,0.0,mike,0
89.0,4904.61538462,4656.41025641,4705.64102564,4408.71794872,4633.33333333,4101.02564103,4680.0,4812.82051282,4674.87179487,4825.12820513,4618.46153846,4665.12820513,4539.48717949,4490.25641026,1695.0,1663.0,20.964,0.0,0.0,0.0,0.0,mike,0
90.0,4890.76923077,4654.87179487,4693.33333333,4400.51282051,4616.41025641,4092.30769231,4670.76923077,4810.76923077,4668.20512821,4818.46153846,4616.92307692,4665.64102564,4529.74358974,4487.17948718,1695.0,1664.0,20.972,0.0,0.0,0.0,0.0,mike,0
91.0,4901.02564103,4659.48717949,4691.28205128,4401.53846154,4606.66666667,4094.35897436,4673.84615385,4813.33333333,4671.28205128,4824.1025641,4617.43589744,4665.64102564,4522.56410256,4487.17948718,1696.0,1662.0,20.98,0.0,0.0,0.0,0.0,mike,0
92.0,4903.58974359,4651.28205128,4693.84615385,4401.02564103,4621.02564103,4103.07692308,4681.53846154,4816.41025641,4675.8974359,4826.66666667,4616.41025641,4662.05128205,4524.61538462,4487.69230769,1694.0,1664.0,20.988,0.0,0.0,0.0,0.0,mike,0
93.0,4888.20512821,4642.05128205,4685.12820513,4395.8974359,4628.71794872,4097.94871795,4673.33333333,4814.87179487,4668.71794872,4816.41025641,4611.79487179,4654.87179487,4522.05128205,4489.74358974,1695.0,1664.0,20.995,0.0,0.0,0.0,0.0,mike,0
94.0,4893.84615385,4649.23076923,4685.12820513,4394.87179487,4620.0,4087.69230769,4663.07692308,4808.71794872,4666.66666667,4813.33333333,4612.30769231,4653.33333333,4518.46153846,4485.12820513,1693.0,1663.0,21.003,0.0,0.0,0.0,0.0,mike,0
95.0,4909.23076923,4656.92307692,4696.41025641,4397.43589744,4615.8974359,4091.79487179,4664.1025641,4808.71794872,4670.76923077,4818.97435897,4618.46153846,4661.53846154,4522.56410256,4478.97435897,1694.0,1664.0,21.011,0.0,0.0,0.0,0.0,mike,0
96.0,4894.35897436,4651.28205128,4694.35897436,4397.43589744,4609.74358974,4095.38461538,4665.12820513,4810.76923077,4667.17948718,4815.8974359,4615.8974359,4663.07692308,4523.07692308,4477.94871795,1694.0,1662.0,21.019,0.0,0.0,0.0,0.0,mike,0
97.0,4882.05128205,4646.66666667,4684.61538462,4396.92307692,4601.02564103,4089.74358974,4660.0,4803.07692308,4662.05128205,4811.28205128,4612.30769231,4656.41025641,4518.97435897,4475.38461538,1694.0,1663.0,21.027,0.0,0.0,0.0,0.0,mike,0
98.0,4895.38461538,4649.23076923,4687.69230769,4397.43589744,4616.92307692,4088.71794872,4661.02564103,4797.94871795,4665.12820513,4815.8974359,4617.94871795,4658.97435897,4522.05128205,4480.51282051,1694.0,1662.0,21.035,0.0,0.0,0.0,0.0,mike,0
99.0,4898.46153846,4651.28205128,4690.76923077,4398.97435897,4634.87179487,4093.33333333,4663.58974359,4802.56410256,4666.66666667,4817.43589744,4623.07692308,4660.51282051,4526.66666667,4494.87179487,1695.0,1663.0,21.042,0.0,0.0,0.0,0.0,mike,0
100.0,4885.12820513,4653.33333333,4682.56410256,4399.48717949,4626.66666667,4091.79487179,4655.38461538,4799.48717949,4661.02564103,4811.28205128,4614.35897436,4648.71794872,4518.46153846,4489.74358974,1695.0,1662.0,21.05,0.0,0.0,0.0,0.0,mike,0
101.0,4881.53846154,4657.43589744,4676.92307692,4397.94871795,4617.43589744,4086.66666667,4647.69230769,4795.38461538,4663.07692308,4814.35897436,4609.23076923,4643.07692308,4512.82051282,4472.30769231,1696.0,1663.0,21.058,0.0,0.0,0.0,0.0,mike,0
102.0,4892.82051282,4656.92307692,4683.58974359,4396.41025641,4610.25641026,4087.69230769,4650.25641026,4803.58974359,4669.23076923,4824.1025641,4618.46153846,4654.35897436,4521.53846154,4473.33333333,1694.0,1663.0,21.066,0.0,0.0,0.0,0.0,mike,0
103.0,4892.30769231,4650.76923077,4687.69230769,4397.94871795,4602.56410256,4090.25641026,4650.76923077,4805.64102564,4668.71794872,4822.05128205,4623.07692308,4657.43589744,4525.12820513,4478.97435897,1695.0,1664.0,21.074,0.0,0.0,0.0,0.0,mike,0
104.0,4879.48717949,4648.20512821,4678.97435897,4396.92307692,4618.97435897,4088.20512821,4648.71794872,4796.92307692,4664.1025641,4811.79487179,4617.43589744,4647.69230769,4521.02564103,4470.25641026,1695.0,1664.0,21.081,0.0,0.0,0.0,0.0,mike,0
105.0,4878.46153846,4647.69230769,4675.8974359,4393.84615385,4632.82051282,4087.69230769,4649.23076923,4797.94871795,4664.1025641,4810.76923077,4612.82051282,4646.66666667,4518.97435897,4472.30769231,1696.0,1664.0,21.089,0.0,0.0,0.0,0.0,mike,0
106.0,4880.51282051,4643.58974359,4678.97435897,4393.84615385,4621.02564103,4087.17948718,4630.25641026,4801.53846154,4665.64102564,4813.33333333,4615.8974359,4649.74358974,4513.33333333,4485.12820513,1696.0,1664.0,21.097,0.0,0.0,0.0,0.0,mike,0
107.0,4873.33333333,4642.56410256,4674.87179487,4392.82051282,4615.8974359,4088.71794872,4599.48717949,4798.97435897,4662.05128205,4808.71794872,4614.87179487,4642.56410256,4505.64102564,4478.97435897,1697.0,1666.0,21.105,0.0,0.0,0.0,0.0,mike,0
108.0,4871.28205128,4648.20512821,4669.23076923,4389.74358974,4611.79487179,4088.71794872,4585.12820513,4796.92307692,4656.41025641,4800.51282051,4605.12820513,4633.33333333,4505.64102564,4459.48717949,1695.0,1666.0,21.113,0.0,0.0,0.0,0.0,mike,0
109.0,4873.33333333,4648.20512821,4670.76923077,4392.30769231,4595.38461538,4083.07692308,4575.38461538,4796.92307692,4654.87179487,4801.02564103,4604.1025641,4637.43589744,4506.15384615,4454.87179487,1697.0,1667.0,21.121,0.0,0.0,0.0,0.0,mike,0
110.0,4876.92307692,4649.23076923,4678.46153846,4396.41025641,4608.20512821,4082.56410256,4553.33333333,4796.41025641,4661.02564103,4810.76923077,4615.8974359,4648.20512821,4505.64102564,4464.1025641,1696.0,1664.0,21.128,0.0,0.0,0.0,0.0,mike,0
111.0,4886.15384615,4657.43589744,4687.17948718,4396.41025641,4628.71794872,4088.71794872,4534.35897436,4796.92307692,4663.58974359,4815.38461538,4618.46153846,4653.33333333,4511.28205128,4472.82051282,1695.0,1666.0,21.136,0.0,0.0,0.0,0.0,mike,0
112.0,4893.33333333,4660.0,4690.76923077,4396.41025641,4616.92307692,4088.71794872,4532.82051282,4798.46153846,4661.02564103,4812.82051282,4615.8974359,4654.35897436,4521.53846154,4480.51282051,1696.0,1665.0,21.144,0.0,0.0,0.0,0.0,mike,0
113.0,4889.23076923,4655.8974359,4691.28205128,4398.97435897,4613.33333333,4087.17948718,4537.94871795,4800.0,4664.61538462,4814.87179487,4623.58974359,4657.43589744,4524.61538462,4481.53846154,1695.0,1664.0,21.152,0.0,0.0,0.0,0.0,mike,0
114.0,4882.56410256,4651.79487179,4687.69230769,4397.94871795,4624.61538462,4090.25641026,4538.97435897,4800.51282051,4664.61538462,4814.87179487,4624.1025641,4656.41025641,4513.33333333,4475.8974359,1696.0,1664.0,21.16,0.0,0.0,0.0,0.0,mike,0
115.0,4878.46153846,4645.12820513,4679.48717949,4395.8974359,4616.92307692,4087.17948718,4536.92307692,4796.92307692,4655.8974359,4810.25641026,4614.35897436,4647.69230769,4502.05128205,4471.79487179,1695.0,1664.0,21.168,0.0,0.0,0.0,0.0,mike,0
116.0,4869.23076923,4643.07692308,4674.35897436,4396.41025641,4608.71794872,4082.05128205,4536.92307692,4792.82051282,4651.28205128,4808.20512821,4614.35897436,4639.48717949,4503.07692308,4468.20512821,1695.0,1664.0,21.175,0.0,0.0,0.0,0.0,mike,0
117.0,4865.64102564,4651.28205128,4678.97435897,4398.97435897,4618.46153846,4089.23076923,4541.02564103,4794.87179487,4656.92307692,4809.74358974,4616.41025641,4642.56410256,4504.61538462,4462.05128205,1694.0,1664.0,21.183,0.0,0.0,0.0,0.0,mike,0
118.0,4875.8974359,4652.30769231,4683.07692308,4395.8974359,4618.97435897,4092.30769231,4543.07692308,4799.48717949,4663.07692308,4812.30769231,4614.35897436,4648.20512821,4504.1025641,4458.46153846,1695.0,1664.0,21.191,0.0,0.0,0.0,0.0,mike,0
119.0,4874.87179487,4643.58974359,4686.66666667,4389.23076923,4611.79487179,4084.1025641,4538.97435897,4796.92307692,4658.97435897,4809.74358974,4614.87179487,4645.64102564,4505.64102564,4466.66666667,1695.0,1663.0,21.198,0.0,0.0,0.0,0.0,mike,0
120.0,4856.41025641,4645.12820513,4704.61538462,4393.84615385,4622.05128205,4085.12820513,4540.0,4798.97435897,4657.94871795,4810.25641026,4622.56410256,4645.12820513,4507.17948718,4478.46153846,1694.0,1665.0,21.207,0.0,0.0,0.0,0.0,mike,0
121.0,4854.87179487,4658.97435897,4727.17948718,4401.53846154,4631.79487179,4095.38461538,4551.28205128,4810.25641026,4668.71794872,4814.87179487,4631.79487179,4653.84615385,4511.28205128,4478.46153846,1695.0,1664.0,21.214,0.0,0.0,0.0,0.0,mike,0
122.0,4867.17948718,4665.12820513,4737.43589744,4400.51282051,4620.0,4096.41025641,4557.43589744,4814.87179487,4675.38461538,4815.8974359,4632.82051282,4663.07692308,4521.53846154,4475.38461538,1694.0,1664.0,21.222,0.0,0.0,0.0,0.0,mike,0
123.0,4862.05128205,4661.53846154,4737.94871795,4402.56410256,4612.30769231,4091.79487179,4556.41025641,4813.33333333,4671.79487179,4814.35897436,4629.74358974,4667.17948718,4524.1025641,4478.97435897,1695.0,1664.0,21.23,0.0,0.0,0.0,0.0,mike,0
124.0,4848.20512821,4656.92307692,4727.69230769,4405.64102564,4625.12820513,4094.35897436,4557.94871795,4813.84615385,4670.25641026,4813.33333333,4630.76923077,4658.46153846,4513.33333333,4474.35897436,1694.0,1663.0,21.238,0.0,0.0,0.0,0.0,mike,0
125.0,4839.48717949,4647.69230769,4708.20512821,4397.43589744,4629.74358974,4096.41025641,4554.87179487,4806.66666667,4664.61538462,4804.1025641,4623.07692308,4641.53846154,4497.94871795,4461.02564103,1695.0,1664.0,21.246,0.0,0.0,0.0,0.0,mike,0
126.0,4825.64102564,4630.76923077,4692.82051282,4383.07692308,4607.69230769,4087.69230769,4542.56410256,4789.23076923,4648.20512821,4786.15384615,4601.53846154,4623.58974359,4482.05128205,4441.02564103,1695.0,1662.0,21.254,0.0,0.0,0.0,0.0,mike,0
127.0,4810.25641026,4622.56410256,4683.58974359,4375.38461538,4592.30769231,4077.94871795,4534.87179487,4782.05128205,4639.48717949,4776.41025641,4589.74358974,4612.30769231,4468.71794872,4423.07692308,1695.0,1661.0,21.261,0.0,0.0,0.0,0.0,mike,0
128.0,4808.71794872,4628.71794872,4678.46153846,4377.43589744,4599.48717949,4077.94871795,4535.38461538,4790.25641026,4646.66666667,4784.1025641,4599.48717949,4615.8974359,4472.30769231,4431.79487179,1695.0,1661.0,21.269,0.0,0.0,0.0,0.0,mike,0
0.0,4818.97435897,4636.41025641,4688.20512821,4384.61538462,4609.23076923,4084.61538462,4539.48717949,4802.56410256,4657.43589744,4802.05128205,4615.38461538,4635.38461538,4492.30769231,4454.35897436,1695.0,1662.0,21.277,0.0,0.0,0.0,0.0,mike,0
1.0,4835.8974359,4642.56410256,4706.66666667,4393.84615385,4615.8974359,4090.76923077,4551.28205128,4811.79487179,4670.25641026,4814.35897436,4627.17948718,4654.35897436,4509.23076923,4462.05128205,1695.0,1662.0,21.285,0.0,0.0,0.0,0.0,mike,0
2.0,4844.1025641,4651.79487179,4707.69230769,4397.94871795,4621.53846154,4097.43589744,4561.53846154,4817.43589744,4680.51282051,4816.41025641,4630.76923077,4655.8974359,4510.76923077,4460.0,1695.0,1662.0,21.293,0.0,0.0,0.0,0.0,mike,0
3.0,4830.25641026,4650.76923077,4696.41025641,4394.35897436,4617.43589744,4093.33333333,4552.82051282,4814.87179487,4674.35897436,4812.30769231,4623.58974359,4641.53846154,4506.15384615,4463.07692308,1696.0,1662.0,21.3,0.0,0.0,0.0,0.0,mike,0
4.0,4826.15384615,4639.48717949,4694.35897436,4387.69230769,4616.92307692,4084.1025641,4543.07692308,4804.61538462,4663.07692308,4809.74358974,4616.92307692,4636.41025641,4504.1025641,4460.51282051,1695.0,1662.0,21.308,0.0,0.0,0.0,0.0,mike,0
5.0,4842.05128205,4637.94871795,4703.07692308,4390.25641026,4615.8974359,4085.12820513,4548.20512821,4802.05128205,4661.02564103,4809.74358974,4622.56410256,4647.69230769,4504.61538462,4456.41025641,1697.0,1661.0,21.316,0.0,0.0,0.0,0.0,mike,0
6.0,4849.23076923,4655.8974359,4714.87179487,4398.46153846,4607.17948718,4091.79487179,4556.41025641,4810.25641026,4666.66666667,4812.82051282,4633.33333333,4658.46153846,4512.82051282,4470.25641026,1695.0,1659.0,21.324,0.0,0.0,0.0,0.0,mike,0
7.0,4844.1025641,4667.17948718,4718.46153846,4400.0,4615.8974359,4093.33333333,4556.92307692,4815.8974359,4672.82051282,4815.38461538,4635.38461538,4659.48717949,4518.97435897,4480.51282051,1696.0,1660.0,21.332,0.0,0.0,0.0,0.0,mike,0
8.0,4844.1025641,4655.8974359,4713.84615385,4399.48717949,4631.28205128,4091.79487179,4555.38461538,4812.30769231,4674.35897436,4815.38461538,4629.74358974,4655.8974359,4511.28205128,4465.12820513,1695.0,1659.0,21.34,0.0,0.0,0.0,0.0,mike,0
9.0,4845.12820513,4645.12820513,4712.82051282,4401.02564103,4618.46153846,4090.25641026,4555.38461538,4809.74358974,4670.76923077,4813.33333333,4629.74358974,4650.76923077,4504.61538462,4453.33333333,1695.0,1661.0,21.347,0.0,0.0,0.0,0.0,mike,0
10.0,4844.1025641,4647.17948718,4716.92307692,4400.51282051,4610.76923077,4091.79487179,4556.41025641,4812.30769231,4671.79487179,4813.84615385,4634.35897436,4647.17948718,4506.66666667,4461.02564103,1695.0,1661.0,21.355,0.0,0.0,0.0,0.0,mike,0
11.0,4853.84615385,4649.74358974,4718.46153846,4398.97435897,4617.94871795,4094.35897436,4556.92307692,4813.33333333,4671.79487179,4813.84615385,4634.35897436,4650.76923077,4508.20512821,4468.71794872,1695.0,1661.0,21.362,0.0,0.0,0.0,0.0,mike,0
12.0,4861.02564103,4655.38461538,4721.53846154,4400.51282051,4618.46153846,4090.76923077,4557.94871795,4813.33333333,4669.74358974,4812.82051282,4632.82051282,4656.92307692,4510.25641026,4472.82051282,1695.0,1660.0,21.371,0.0,0.0,0.0,0.0,mike,0
13.0,4851.28205128,4663.58974359,4725.12820513,4402.05128205,4624.1025641,4090.76923077,4558.46153846,4812.30769231,4670.25641026,4812.30769231,4635.38461538,4655.8974359,4513.33333333,4476.41025641,1694.0,1661.0,21.379,0.0,0.0,0.0,0.0,mike,0
14.0,4842.56410256,4663.07692308,4719.48717949,4401.53846154,4629.23076923,4096.41025641,4556.41025641,4810.25641026,4665.64102564,4811.28205128,4631.79487179,4649.23076923,4508.20512821,4467.17948718,1694.0,1661.0,21.386,0.0,0.0,0.0,0.0,mike,0
15.0,4851.28205128,4663.58974359,4715.8974359,4403.58974359,4624.61538462,4098.46153846,4561.02564103,4810.25641026,4663.58974359,4809.74358974,4626.66666667,4649.74358974,4503.07692308,4456.41025641,1693.0,1663.0,21.394,0.0,0.0,0.0,0.0,mike,0
16.0,4860.0,4665.12820513,4722.05128205,4404.1025641,4628.20512821,4098.97435897,4567.69230769,4814.35897436,4672.30769231,4812.82051282,4634.35897436,4657.94871795,4508.20512821,4465.64102564,1695.0,1664.0,21.402,0.0,0.0,0.0,0.0,mike,0
17.0,4859.48717949,4654.87179487,4726.15384615,4400.0,4630.76923077,4097.94871795,4559.48717949,4815.8974359,4676.92307692,4814.87179487,4640.51282051,4660.51282051,4514.35897436,4482.05128205,1693.0,1663.0,21.41,0.0,0.0,0.0,0.0,mike,0
18.0,4863.07692308,4651.28205128,4726.15384615,4401.02564103,4611.28205128,4093.33333333,4551.79487179,4813.33333333,4671.79487179,4812.30769231,4633.84615385,4657.94871795,4511.79487179,4476.41025641,1694.0,1665.0,21.418,0.0,0.0,0.0,0.0,mike,0
19.0,4858.97435897,4656.92307692,4720.51282051,4403.07692308,4598.46153846,4090.76923077,4558.97435897,4812.30769231,4666.66666667,4810.25641026,4628.71794872,4652.82051282,4504.61538462,4456.92307692,1694.0,1663.0,21.426,0.0,0.0,0.0,0.0,mike,0
20.0,4846.15384615,4651.28205128,4710.25641026,4399.48717949,4610.76923077,4092.82051282,4565.12820513,4811.79487179,4664.1025641,4809.23076923,4629.23076923,4646.66666667,4501.02564103,4453.33333333,1694.0,1664.0,21.433,0.0,0.0,0.0,0.0,mike,0
21.0,4841.02564103,4643.58974359,4704.1025641,4394.35897436,4617.94871795,4093.33333333,4564.61538462,4809.23076923,4663.58974359,4809.23076923,4626.66666667,4643.58974359,4502.05128205,4462.05128205,1694.0,1664.0,21.441,0.0,0.0,0.0,0.0,mike,0
22.0,4842.05128205,4646.66666667,4703.58974359,4394.87179487,4621.53846154,4095.38461538,4568.20512821,4807.69230769,4665.12820513,4811.79487179,4624.61538462,4646.15384615,4506.15384615,4462.05128205,1694.0,1663.0,21.449,0.0,0.0,0.0,0.0,mike,0
23.0,4844.61538462,4646.15384615,4704.1025641,4401.02564103,4620.51282051,4099.48717949,4584.61538462,4811.79487179,4666.66666667,4814.87179487,4624.1025641,4648.71794872,4506.66666667,4458.97435897,1695.0,1663.0,21.457,0.0,0.0,0.0,0.0,mike,0
24.0,4844.61538462,4636.92307692,4703.07692308,4396.41025641,4609.23076923,4098.46153846,4618.46153846,4815.38461538,4668.71794872,4816.41025641,4618.97435897,4649.23076923,4498.46153846,4452.30769231,1694.0,1663.0,21.465,0.0,0.0,0.0,0.0,mike,0
25.0,4831.79487179,4631.28205128,4698.97435897,4377.43589744,4611.79487179,4090.25641026,4649.74358974,4806.15384615,4663.07692308,4812.82051282,4614.35897436,4644.1025641,4488.20512821,4438.97435897,1695.0,1663.0,21.472,0.0,0.0,0.0,0.0,mike,0
26.0,4828.20512821,4635.8974359,4701.53846154,4370.25641026,4622.56410256,4090.76923077,4661.02564103,4802.05128205,4659.48717949,4810.25641026,4619.48717949,4642.05128205,4491.28205128,4443.07692308,1695.0,1663.0,21.48,0.0,0.0,0.0,0.0,mike,0
27.0,4847.69230769,4648.71794872,4709.74358974,4378.46153846,4624.61538462,4104.1025641,4671.79487179,4813.33333333,4670.25641026,4814.35897436,4628.20512821,4649.74358974,4502.56410256,4465.64102564,1696.0,1661.0,21.488,0.0,0.0,0.0,0.0,mike,0
28.0,4853.33333333,4651.79487179,4707.17948718,4378.97435897,4620.51282051,4105.64102564,4692.82051282,4816.41025641,4672.82051282,4816.41025641,4629.74358974,4652.30769231,4507.17948718,4470.25641026,1695.0,1662.0,21.496,0.0,0.0,0.0,0.0,mike,0
29.0,4841.02564103,4645.12820513,4699.48717949,4372.82051282,4603.58974359,4090.76923077,4705.64102564,4808.71794872,4663.58974359,4813.84615385,4628.71794872,4646.15384615,4502.05128205,4455.38461538,1696.0,1662.0,21.504,0.0,0.0,0.0,0.0,mike,0
30.0,4844.1025641,4643.07692308,4703.07692308,4372.82051282,4597.43589744,4090.25641026,4711.28205128,4810.25641026,4666.15384615,4814.35897436,4628.20512821,4647.69230769,4497.43589744,4453.84615385,1696.0,1662.0,21.512,0.0,0.0,0.0,0.0,mike,0
31.0,4847.17948718,4641.02564103,4707.17948718,4371.79487179,4630.25641026,4104.1025641,4717.94871795,4812.30769231,4670.76923077,4814.87179487,4624.61538462,4650.25641026,4494.35897436,4459.48717949,1697.0,1661.0,21.519,0.0,0.0,0.0,0.0,mike,0
32.0,4837.94871795,4635.8974359,4701.02564103,4368.20512821,4645.12820513,4105.12820513,4718.97435897,4806.15384615,4662.56410256,4812.82051282,4621.53846154,4645.64102564,4490.25641026,4449.23076923,1696.0,1662.0,21.527,0.0,0.0,0.0,0.0,mike,0
33.0,4839.48717949,4641.53846154,4700.0,4368.71794872,4615.38461538,4097.43589744,4718.97435897,4809.23076923,4661.53846154,4814.35897436,4624.1025641,4644.1025641,4493.33333333,4442.56410256,1697.0,1660.0,21.535,0.0,0.0,0.0,0.0,mike,0
34.0,4846.66666667,4651.79487179,4703.58974359,4374.87179487,4612.82051282,4099.48717949,4719.48717949,4814.35897436,4670.25641026,4814.35897436,4627.69230769,4647.69230769,4503.07692308,4454.87179487,1696.0,1661.0,21.543,0.0,0.0,0.0,0.0,mike,0
35.0,4846.15384615,4651.28205128,4702.56410256,4382.56410256,4629.23076923,4104.1025641,4717.94871795,4812.30769231,4671.79487179,4816.92307692,4631.79487179,4651.79487179,4508.20512821,4465.12820513,1697.0,1662.0,21.551,0.0,0.0,0.0,0.0,mike,0
36.0,4851.28205128,4652.30769231,4708.20512821,4383.58974359,4616.92307692,4106.15384615,4720.0,4817.43589744,4673.33333333,4823.07692308,4634.35897436,4657.94871795,4505.64102564,4458.97435897,1695.0,1662.0,21.558,0.0,0.0,0.0,0.0,mike,0
37.0,4861.53846154,4657.94871795,4716.92307692,4381.02564103,4612.82051282,4107.69230769,4722.56410256,4826.66666667,4680.51282051,4826.66666667,4635.8974359,4664.1025641,4509.74358974,4457.43589744,1696.0,1663.0,21.566,0.0,0.0,0.0,0.0,mike,0
38.0,4864.1025641,4654.87179487,4720.0,4384.1025641,4627.17948718,4107.17948718,4718.46153846,4826.15384615,4685.12820513,4829.74358974,4640.51282051,4665.64102564,4521.53846154,4472.30769231,1695.0,1661.0,21.574,0.0,0.0,0.0,0.0,mike,0
39.0,4856.41025641,4645.64102564,4718.97435897,4385.64102564,4635.8974359,4107.69230769,4715.38461538,4818.97435897,4682.05128205,4826.66666667,4638.97435897,4658.46153846,4519.48717949,4473.33333333,1694.0,1663.0,21.582,0.0,0.0,0.0,0.0,mike,0
40.0,4846.15384615,4646.15384615,4710.25641026,4375.38461538,4635.8974359,4107.17948718,4714.35897436,4814.35897436,4671.79487179,4814.35897436,4630.76923077,4648.20512821,4506.66666667,4454.87179487,1696.0,1663.0,21.59,0.0,0.0,0.0,0.0,mike,0
41.0,4840.0,4652.82051282,4699.48717949,4369.23076923,4627.17948718,4102.56410256,4708.20512821,4810.76923077,4663.07692308,4808.71794872,4628.71794872,4645.64102564,4504.61538462,4450.25641026,1695.0,1663.0,21.598,0.0,0.0,0.0,0.0,mike,0
42.0,4840.51282051,4649.23076923,4698.46153846,4378.46153846,4614.35897436,4096.41025641,4698.46153846,4809.74358974,4662.05128205,4813.33333333,4632.30769231,4646.15384615,4507.17948718,4458.46153846,1695.0,1663.0,21.605,0.0,0.0,0.0,0.0,mike,0
43.0,4844.61538462,4642.56410256,4702.56410256,4381.53846154,4610.25641026,4093.33333333,4687.69230769,4810.25641026,4663.58974359,4812.82051282,4630.76923077,4645.64102564,4502.56410256,4452.82051282,1695.0,1663.0,21.613,0.0,0.0,0.0,0.0,mike,0
44.0,4847.17948718,4644.1025641,4703.58974359,4373.33333333,4618.46153846,4096.92307692,4687.69230769,4809.74358974,4666.15384615,4812.30769231,4630.76923077,4648.20512821,4501.53846154,4448.71794872,1695.0,1663.0,21.621,0.0,0.0,0.0,0.0,mike,0
45.0,4846.15384615,4644.1025641,4704.1025641,4371.79487179,4622.05128205,4104.1025641,4698.46153846,4810.25641026,4671.79487179,4815.38461538,4634.87179487,4650.76923077,4505.64102564,4457.43589744,1694.0,1663.0,21.629,0.0,0.0,0.0,0.0,mike,0
46.0,4840.51282051,4637.94871795,4700.51282051,4374.35897436,4612.82051282,4104.1025641,4701.02564103,4808.71794872,4670.25641026,4812.30769231,4633.84615385,4645.12820513,4503.58974359,4460.51282051,1695.0,1663.0,21.637,0.0,0.0,0.0,0.0,mike,0
47.0,4841.02564103,4640.51282051,4699.48717949,4369.74358974,4614.35897436,4103.07692308,4704.1025641,4811.28205128,4667.17948718,4811.79487179,4630.25641026,4644.1025641,4501.53846154,4455.8974359,1694.0,1661.0,21.645,0.0,0.0,0.0,0.0,mike,0
48.0,4848.71794872,4650.25641026,4706.66666667,4369.23076923,4629.74358974,4109.74358974,4713.84615385,4816.92307692,4673.84615385,4815.8974359,4632.82051282,4655.8974359,4506.15384615,4457.43589744,1694.0,1664.0,21.652,0.0,0.0,0.0,0.0,mike,0
49.0,4848.20512821,4650.76923077,4706.15384615,4377.94871795,4626.66666667,4106.66666667,4708.20512821,4817.94871795,4675.8974359,4815.8974359,4634.87179487,4657.94871795,4504.1025641,4460.0,1695.0,1662.0,21.66,0.0,0.0,0.0,0.0,mike,0
50.0,4841.53846154,4642.05128205,4698.97435897,4377.94871795,4610.76923077,4092.30769231,4690.76923077,4813.84615385,4671.28205128,4812.82051282,4631.79487179,4649.74358974,4493.84615385,4451.28205128,1695.0,1662.0,21.668,0.0,0.0,0.0,0.0,mike,0
51.0,4851.28205128,4638.46153846,4706.15384615,4374.87179487,4624.61538462,4094.35897436,4686.66666667,4812.82051282,4673.84615385,4813.33333333,4631.28205128,4653.33333333,4491.79487179,4453.84615385,1697.0,1662.0,21.676,0.0,0.0,0.0,0.0,mike,0
52.0,4865.12820513,4643.58974359,4714.87179487,4380.0,4631.28205128,4101.53846154,4687.17948718,4813.84615385,4677.43589744,4815.38461538,4634.87179487,4657.94871795,4496.41025641,4464.61538462,1695.0,1662.0,21.684,0.0,0.0,0.0,0.0,mike,0
53.0,4854.87179487,4647.17948718,4703.07692308,4378.97435897,4598.46153846,4091.79487179,4680.51282051,4809.74358974,4672.82051282,4813.33333333,4630.25641026,4650.76923077,4492.30769231,4450.76923077,1696.0,1663.0,21.691,0.0,0.0,0.0,0.0,mike,0
54.0,4837.94871795,4644.61538462,4689.74358974,4372.30769231,4598.46153846,4089.74358974,4681.02564103,4807.17948718,4668.71794872,4810.25641026,4626.15384615,4646.15384615,4486.66666667,4435.38461538,1696.0,1663.0,21.699,0.0,0.0,0.0,0.0,mike,0
55.0,4843.07692308,4647.17948718,4695.8974359,4377.43589744,4637.43589744,4105.12820513,4694.35897436,4816.41025641,4672.82051282,4810.25641026,4631.28205128,4648.20512821,4492.30769231,4455.8974359,1696.0,1663.0,21.707,0.0,0.0,0.0,0.0,mike,0
56.0,4861.02564103,4651.28205128,4704.61538462,4384.1025641,4646.66666667,4111.79487179,4706.66666667,4830.25641026,4681.02564103,4815.38461538,4635.38461538,4651.79487179,4498.46153846,4469.23076923,1695.0,1662.0,21.715,0.0,0.0,0.0,0.0,mike,0
57.0,4862.56410256,4648.71794872,4702.56410256,4377.43589744,4626.66666667,4106.15384615,4701.53846154,4829.23076923,4680.0,4813.84615385,4632.82051282,4653.33333333,4494.87179487,4446.66666667,1696.0,1663.0,21.723,0.0,0.0,0.0,0.0,mike,0
58.0,4849.74358974,4644.61538462,4700.51282051,4375.8974359,4616.41025641,4103.58974359,4688.20512821,4816.92307692,4668.71794872,4804.61538462,4630.76923077,4648.71794872,4488.20512821,4436.41025641,1695.0,1663.0,21.731,0.0,0.0,0.0,0.0,mike,0
59.0,4844.61538462,4648.20512821,4704.1025641,4383.07692308,4621.02564103,4102.05128205,4686.66666667,4812.82051282,4664.61538462,4803.07692308,4629.74358974,4646.15384615,4489.74358974,4449.23076923,1695.0,1664.0,21.738,0.0,0.0,0.0,0.0,mike,0
60.0,4848.20512821,4648.20512821,4702.56410256,4382.56410256,4616.41025641,4092.82051282,4685.12820513,4807.69230769,4663.07692308,4802.05128205,4629.74358974,4647.69230769,4493.33333333,4446.15384615,1696.0,1663.0,21.746,0.0,0.0,0.0,0.0,mike,0
61.0,4851.79487179,4642.56410256,4698.97435897,4378.97435897,4606.15384615,4085.64102564,4671.28205128,4793.84615385,4658.46153846,4796.92307692,4629.23076923,4646.15384615,4489.23076923,4439.48717949,1694.0,1664.0,21.754,0.0,0.0,0.0,0.0,mike,0
62.0,4858.46153846,4647.17948718,4704.1025641,4378.97435897,4608.71794872,4087.17948718,4669.74358974,4796.92307692,4662.56410256,4805.12820513,4631.28205128,4648.20512821,4492.82051282,4453.84615385,1696.0,1663.0,21.762,0.0,0.0,0.0,0.0,mike,0
63.0,4864.61538462,4657.94871795,4712.82051282,4383.58974359,4622.56410256,4092.82051282,4684.1025641,4812.30769231,4672.30769231,4816.92307692,4637.43589744,4659.48717949,4506.15384615,4463.07692308,1695.0,1663.0,21.77,0.0,0.0,0.0,0.0,mike,0
64.0,4854.35897436,4651.79487179,4707.69230769,4383.07692308,4624.1025641,4093.84615385,4688.20512821,4809.23076923,4668.71794872,4807.17948718,4634.35897436,4657.43589744,4498.97435897,4446.66666667,1696.0,1664.0,21.777,0.0,0.0,0.0,0.0,mike,0
65.0,4841.02564103,4634.35897436,4691.79487179,4370.25641026,4604.61538462,4086.66666667,4679.48717949,4794.35897436,4652.30769231,4792.30769231,4615.8974359,4636.92307692,4472.82051282,4430.25641026,1695.0,1663.0,21.785,0.0,0.0,0.0,0.0,mike,0
66.0,4836.41025641,4626.66666667,4681.53846154,4364.1025641,4598.46153846,4081.53846154,4675.8974359,4791.79487179,4646.15384615,4790.25641026,4611.79487179,4625.64102564,4466.15384615,4434.35897436,1695.0,1663.0,21.793,0.0,0.0,0.0,0.0,mike,0
67.0,4841.53846154,4637.43589744,4688.71794872,4377.94871795,4624.61538462,4092.82051282,4687.17948718,4802.05128205,4657.94871795,4800.0,4629.74358974,4637.94871795,4484.61538462,4451.28205128,1695.0,1662.0,21.801,0.0,0.0,0.0,0.0,mike,0
68.0,4854.87179487,4651.28205128,4703.07692308,4388.71794872,4644.1025641,4108.71794872,4697.43589744,4815.38461538,4675.38461538,4813.33333333,4640.51282051,4655.8974359,4498.97435897,4460.51282051,1695.0,1664.0,21.809,0.0,0.0,0.0,0.0,mike,0
69.0,4855.38461538,4645.12820513,4702.56410256,4380.51282051,4627.17948718,4103.58974359,4689.23076923,4813.84615385,4675.8974359,4808.71794872,4634.35897436,4654.87179487,4491.79487179,4449.74358974,1695.0,1662.0,21.817,0.0,0.0,0.0,0.0,mike,0
70.0,4841.02564103,4631.28205128,4689.23076923,4374.35897436,4610.25641026,4089.23076923,4675.8974359,4800.51282051,4662.05128205,4794.87179487,4625.12820513,4642.56410256,4477.43589744,4430.76923077,1696.0,1662.0,21.824,0.0,0.0,0.0,0.0,mike,0
71.0,4838.97435897,4632.82051282,4692.30769231,4378.97435897,4616.92307692,4090.76923077,4677.43589744,4795.8974359,4661.02564103,4793.84615385,4629.23076923,4642.05128205,4475.38461538,4429.74358974,1697.0,1662.0,21.832,0.0,0.0,0.0,0.0,mike,0
72.0,4850.76923077,4637.43589744,4704.61538462,4382.56410256,4613.84615385,4091.28205128,4681.53846154,4801.02564103,4666.15384615,4797.43589744,4632.82051282,4649.74358974,4479.48717949,4442.56410256,1695.0,1663.0,21.84,0.0,0.0,0.0,0.0,mike,0
73.0,4849.74358974,4633.33333333,4699.48717949,4380.0,4606.66666667,4083.07692308,4673.84615385,4798.97435897,4657.94871795,4793.84615385,4622.56410256,4650.25641026,4476.41025641,4445.12820513,1697.0,1662.0,21.848,0.0,0.0,0.0,0.0,mike,0
74.0,4843.07692308,4634.87179487,4690.76923077,4374.35897436,4618.46153846,4085.12820513,4668.71794872,4793.84615385,4647.17948718,4791.28205128,4620.0,4646.15384615,4473.33333333,4441.02564103,1696.0,1661.0,21.856,0.0,0.0,0.0,0.0,mike,0
75.0,4854.87179487,4648.71794872,4699.48717949,4375.38461538,4626.66666667,4094.35897436,4675.38461538,4795.38461538,4656.41025641,4794.35897436,4631.79487179,4651.79487179,4478.97435897,4446.15384615,1697.0,1662.0,21.862,0.0,0.0,0.0,0.0,mike,0
76.0,4862.05128205,4653.84615385,4709.23076923,4383.58974359,4613.33333333,4094.87179487,4679.48717949,4799.48717949,4666.66666667,4796.41025641,4628.71794872,4656.92307692,4482.56410256,4444.61538462,1696.0,1661.0,21.871,0.0,0.0,0.0,0.0,mike,0
77.0,4848.20512821,4641.02564103,4703.07692308,4386.15384615,4604.61538462,4090.25641026,4673.84615385,4797.43589744,4655.38461538,4789.74358974,4620.0,4646.15384615,4476.41025641,4428.71794872,1696.0,1662.0,21.879,0.0,0.0,0.0,0.0,mike,0
78.0,4840.51282051,4631.79487179,4694.87179487,4380.51282051,4613.33333333,4089.23076923,4670.76923077,4794.35897436,4648.20512821,4781.53846154,4621.02564103,4632.82051282,4469.23076923,4432.30769231,1697.0,1661.0,21.887,0.0,0.0,0.0,0.0,mike,0
79.0,4847.69230769,4639.48717949,4694.35897436,4376.92307692,4622.05128205,4092.82051282,4669.74358974,4794.87179487,4656.41025641,4782.05128205,4600.0,4631.28205128,4472.82051282,4445.12820513,1697.0,1662.0,21.894,0.0,0.0,0.0,0.0,mike,0
80.0,4845.64102564,4643.58974359,4690.25641026,4379.48717949,4625.64102564,4090.25641026,4663.07692308,4794.87179487,4654.35897436,4781.02564103,4561.53846154,4631.79487179,4476.92307692,4435.8974359,1697.0,1661.0,21.903,0.0,0.0,0.0,0.0,mike,0
81.0,4842.56410256,4642.56410256,4689.23076923,4381.02564103,4624.1025641,4083.58974359,4661.02564103,4793.33333333,4649.74358974,4786.15384615,4551.28205128,4636.41025641,4474.87179487,4426.66666667,1697.0,1661.0,21.91,0.0,0.0,0.0,0.0,mike,0
82.0,4849.23076923,4646.66666667,4696.41025641,4383.07692308,4614.35897436,4083.07692308,4661.53846154,4791.79487179,4655.38461538,4794.87179487,4561.53846154,4642.05128205,4475.8974359,4437.94871795,1698.0,1662.0,21.918,0.0,0.0,0.0,0.0,mike,0
83.0,4847.17948718,4643.58974359,4693.33333333,4382.05128205,4617.94871795,4086.66666667,4659.48717949,4789.74358974,4656.92307692,4785.64102564,4560.51282051,4634.87179487,4475.38461538,4446.66666667,1698.0,1662.0,21.926,0.0,0.0,0.0,0.0,mike,0
84.0,4843.58974359,4640.51282051,4687.69230769,4381.53846154,4622.56410256,4088.71794872,4660.51282051,4792.30769231,4654.35897436,4783.07692308,4558.97435897,4634.35897436,4476.92307692,4440.51282051,1697.0,1661.0,21.934,0.0,0.0,0.0,0.0,mike,0
85.0,4848.71794872,4650.25641026,4696.92307692,4385.12820513,4608.20512821,4089.23076923,4649.74358974,4799.48717949,4662.56410256,4797.94871795,4567.69230769,4644.1025641,4489.23076923,4439.48717949,1697.0,1662.0,21.942,0.0,0.0,0.0,0.0,mike,0
86.0,4846.15384615,4648.71794872,4697.94871795,4382.05128205,4604.61538462,4084.61538462,4613.33333333,4798.46153846,4662.56410256,4791.79487179,4571.28205128,4637.94871795,4489.23076923,4442.56410256,1697.0,1661.0,21.949,0.0,0.0,0.0,0.0,mike,0
87.0,4841.53846154,4637.43589744,4683.07692308,4375.8974359,4618.97435897,4079.48717949,4591.28205128,4793.33333333,4656.41025641,4778.46153846,4568.20512821,4626.66666667,4472.82051282,4440.0,1698.0,1662.0,21.957,0.0,0.0,0.0,0.0,mike,0
88.0,4844.61538462,4641.53846154,4684.61538462,4380.51282051,4623.58974359,4084.1025641,4597.94871795,4797.43589744,4662.56410256,4792.82051282,4569.23076923,4635.8974359,4473.33333333,4439.48717949,1697.0,1662.0,21.965,0.0,0.0,0.0,0.0,mike,0
89.0,4837.94871795,4644.61538462,4691.79487179,4381.02564103,4612.82051282,4085.64102564,4599.48717949,4802.05128205,4667.69230769,4802.05128205,4573.84615385,4644.61538462,4485.64102564,4446.15384615,1698.0,1662.0,21.973,0.0,0.0,0.0,0.0,mike,0
90.0,4827.69230769,4634.35897436,4682.05128205,4370.76923077,4599.48717949,4078.46153846,4585.12820513,4797.94871795,4660.0,4787.17948718,4572.30769231,4636.41025641,4476.41025641,4445.64102564,1698.0,1662.0,21.981,0.0,0.0,0.0,0.0,mike,0
91.0,4835.8974359,4633.84615385,4674.87179487,4375.8974359,4597.94871795,4081.53846154,4569.23076923,4792.82051282,4652.82051282,4779.48717949,4564.61538462,4625.64102564,4463.58974359,4430.76923077,1697.0,1663.0,21.989,0.0,0.0,0.0,0.0,mike,0
92.0,4840.51282051,4643.07692308,4679.48717949,4386.15384615,4613.33333333,4091.28205128,4556.41025641,4796.41025641,4655.8974359,4783.07692308,4562.56410256,4625.64102564,4469.23076923,4417.94871795,1698.0,1663.0,21.996,0.0,0.0,0.0,0.0,mike,0
93.0,4829.74358974,4638.46153846,4680.51282051,4376.41025641,4624.1025641,4090.76923077,4552.82051282,4798.97435897,4658.97435897,4783.58974359,4568.71794872,4630.76923077,4475.8974359,4422.56410256,1697.0,1662.0,22.004,0.0,0.0,0.0,0.0,mike,0
94.0,4824.1025641,4628.71794872,4675.38461538,4367.69230769,4617.43589744,4080.0,4548.20512821,4796.41025641,4656.41025641,4782.05128205,4568.71794872,4629.74358974,4471.79487179,4428.71794872,1698.0,1664.0,22.012,0.0,0.0,0.0,0.0,mike,0
95.0,4826.66666667,4630.76923077,4674.87179487,4373.84615385,4608.20512821,4075.38461538,4538.97435897,4793.33333333,4654.35897436,4783.07692308,4565.12820513,4629.74358974,4470.76923077,4425.12820513,1697.0,1662.0,22.02,0.0,0.0,0.0,0.0,mike,0
96.0,4830.76923077,4633.33333333,4678.97435897,4375.8974359,4605.12820513,4080.51282051,4543.07692308,4797.43589744,4658.46153846,4784.61538462,4569.74358974,4636.41025641,4474.87179487,4433.33333333,1697.0,1664.0,22.028,0.0,0.0,0.0,0.0,mike,0
97.0,4832.82051282,4630.76923077,4680.0,4368.20512821,4599.48717949,4079.48717949,4546.66666667,4796.41025641,4655.38461538,4783.07692308,4569.23076923,4629.74358974,4469.23076923,4442.56410256,1697.0,1663.0,22.035,0.0,0.0,0.0,0.0,mike,0
98.0,4829.74358974,4630.76923077,4677.43589744,4369.23076923,4600.0,4073.84615385,4539.48717949,4782.56410256,4646.15384615,4780.51282051,4558.46153846,4616.92307692,4457.94871795,4426.15384615,1698.0,1664.0,22.043,0.0,0.0,0.0,0.0,mike,0
99.0,4828.20512821,4632.82051282,4678.46153846,4379.48717949,4608.20512821,4077.94871795,4545.12820513,4784.1025641,4644.61538462,4781.02564103,4560.0,4623.58974359,4458.46153846,4418.46153846,1697.0,1663.0,22.051,0.0,0.0,0.0,0.0,mike,0
100.0,4833.33333333,4632.30769231,4679.48717949,4377.43589744,4611.79487179,4086.66666667,4556.92307692,4793.84615385,4648.71794872,4781.53846154,4570.76923077,4629.23076923,4463.58974359,4430.76923077,1697.0,1665.0,22.059,0.0,0.0,0.0,0.0,mike,0
101.0,4830.25641026,4630.76923077,4673.84615385,4368.71794872,4610.25641026,4082.05128205,4549.74358974,4786.15384615,4647.17948718,4780.51282051,4569.23076923,4622.05128205,4461.02564103,4425.64102564,1697.0,1664.0,22.067,0.0,0.0,0.0,0.0,mike,0
102.0,4825.12820513,4631.28205128,4672.30769231,4372.82051282,4598.97435897,4072.82051282,4543.58974359,4781.02564103,4643.58974359,4778.46153846,4565.12820513,4621.53846154,4456.92307692,4418.46153846,1696.0,1664.0,22.075,0.0,0.0,0.0,0.0,mike,0
103.0,4832.82051282,4632.30769231,4675.8974359,4377.94871795,4596.41025641,4074.87179487,4551.79487179,4795.38461538,4651.28205128,4784.1025641,4567.69230769,4627.17948718,4463.07692308,4427.17948718,1697.0,1664.0,22.082,0.0,0.0,0.0,0.0,mike,0
104.0,4842.56410256,4632.82051282,4681.53846154,4373.84615385,4613.84615385,4083.07692308,4553.33333333,4801.53846154,4655.8974359,4793.84615385,4570.76923077,4629.74358974,4471.79487179,4429.74358974,1695.0,1664.0,22.09,0.0,0.0,0.0,0.0,mike,0
105.0,4842.56410256,4632.82051282,4688.20512821,4376.92307692,4617.94871795,4083.58974359,4551.28205128,4796.41025641,4653.84615385,4798.46153846,4575.8974359,4632.30769231,4476.41025641,4433.33333333,1696.0,1665.0,22.098,0.0,0.0,0.0,0.0,mike,0
106.0,4840.0,4635.38461538,4689.23076923,4378.46153846,4600.0,4076.41025641,4552.82051282,4794.87179487,4653.84615385,4795.38461538,4574.87179487,4635.8974359,4474.35897436,4445.12820513,1696.0,1664.0,22.106,0.0,0.0,0.0,0.0,mike,0
107.0,4840.0,4634.87179487,4685.12820513,4373.33333333,4603.58974359,4076.41025641,4552.82051282,4794.35897436,4652.82051282,4792.82051282,4570.25641026,4637.94871795,4469.74358974,4444.61538462,1696.0,1664.0,22.114,0.0,0.0,0.0,0.0,mike,0
108.0,4843.58974359,4632.82051282,4685.64102564,4375.38461538,4612.82051282,4083.07692308,4553.84615385,4792.82051282,4650.76923077,4795.8974359,4577.43589744,4642.05128205,4472.82051282,4437.43589744,1695.0,1663.0,22.12,0.0,0.0,0.0,0.0,mike,0
109.0,4847.69230769,4634.87179487,4686.66666667,4378.97435897,4594.35897436,4077.94871795,4552.30769231,4789.23076923,4649.23076923,4791.79487179,4583.07692308,4640.51282051,4475.38461538,4437.43589744,1695.0,1664.0,22.129,0.0,0.0,0.0,0.0,mike,0
110.0,4834.87179487,4625.12820513,4671.79487179,4370.76923077,4589.23076923,4068.20512821,4540.51282051,4781.53846154,4642.05128205,4776.41025641,4568.20512821,4625.12820513,4457.43589744,4428.71794872,1695.0,1664.0,22.137,0.0,0.0,0.0,0.0,mike,0
111.0,4805.12820513,4606.66666667,4651.79487179,4360.51282051,4595.8974359,4065.64102564,4532.30769231,4772.82051282,4629.23076923,4762.56410256,4550.76923077,4604.1025641,4433.84615385,4406.66666667,1695.0,1664.0,22.145,0.0,0.0,0.0,0.0,mike,0
112.0,4794.87179487,4605.12820513,4650.76923077,4360.0,4591.28205128,4060.51282051,4536.41025641,4770.76923077,4627.17948718,4760.0,4553.84615385,4600.0,4432.82051282,4397.94871795,1695.0,1663.0,22.153,0.0,0.0,0.0,0.0,mike,0
113.0,4816.41025641,4615.8974359,4667.17948718,4366.66666667,4593.33333333,4060.0,4537.94871795,4777.43589744,4634.35897436,4770.76923077,4566.66666667,4614.87179487,4448.20512821,4414.87179487,1694.0,1664.0,22.161,0.0,0.0,0.0,0.0,mike,0
114.0,4840.0,4624.61538462,4681.02564103,4375.8974359,4607.69230769,4073.33333333,4538.46153846,4780.51282051,4642.05128205,4784.1025641,4572.30769231,4628.71794872,4458.46153846,4429.23076923,1695.0,1663.0,22.168,0.0,0.0,0.0,0.0,mike,0
115.0,4840.0,4632.30769231,4678.97435897,4377.43589744,4604.61538462,4079.48717949,4541.02564103,4777.94871795,4644.1025641,4788.20512821,4572.82051282,4631.28205128,4462.56410256,4426.15384615,1694.0,1663.0,22.176,0.0,0.0,0.0,0.0,mike,0
116.0,4833.33333333,4633.84615385,4671.28205128,4372.30769231,4580.51282051,4069.74358974,4537.94871795,4776.41025641,4633.84615385,4779.48717949,4570.25641026,4623.58974359,4461.02564103,4424.1025641,1695.0,1665.0,22.183,0.0,0.0,0.0,0.0,mike,0
117.0,4838.46153846,4630.25641026,4675.38461538,4371.79487179,4586.15384615,4068.71794872,4538.97435897,4778.97435897,4633.84615385,4777.94871795,4568.71794872,4618.46153846,4455.8974359,4429.74358974,1695.0,1663.0,22.192,0.0,0.0,0.0,0.0,mike,0
118.0,4849.23076923,4634.87179487,4687.69230769,4380.51282051,4616.41025641,4081.02564103,4552.82051282,4787.17948718,4647.69230769,4790.76923077,4574.87179487,4628.20512821,4461.53846154,4435.38461538,1694.0,1665.0,22.2,0.0,0.0,0.0,0.0,mike,0
119.0,4845.64102564,4632.30769231,4691.28205128,4385.64102564,4624.1025641,4084.1025641,4559.48717949,4796.92307692,4652.82051282,4798.97435897,4583.07692308,4638.46153846,4472.82051282,4430.25641026,1696.0,1663.0,22.208,0.0,0.0,0.0,0.0,mike,0
120.0,4830.25641026,4626.15384615,4683.07692308,4382.05128205,4615.38461538,4080.51282051,4553.33333333,4798.97435897,4648.71794872,4796.41025641,4583.07692308,4633.84615385,4475.8974359,4423.58974359,1695.0,1662.0,22.215,0.0,0.0,0.0,0.0,mike,0
121.0,4827.17948718,4635.38461538,4676.92307692,4382.56410256,4610.25641026,4081.02564103,4551.79487179,4793.33333333,4648.71794872,4795.38461538,4584.61538462,4628.71794872,4473.84615385,4438.46153846,1696.0,1663.0,22.223,0.0,0.0,0.0,0.0,mike,0
122.0,4843.58974359,4640.0,4680.0,4384.61538462,4596.41025641,4078.46153846,4553.33333333,4785.64102564,4650.25641026,4799.48717949,4587.17948718,4634.35897436,4476.41025641,4448.20512821,1694.0,1662.0,22.231,0.0,0.0,0.0,0.0,mike,0
123.0,4850.76923077,4633.33333333,4683.07692308,4378.46153846,4595.8974359,4076.41025641,4552.82051282,4780.51282051,4647.17948718,4794.35897436,4583.58974359,4631.28205128,4474.35897436,4432.30769231,1695.0,1662.0,22.239,0.0,0.0,0.0,0.0,mike,0
124.0,4835.38461538,4630.25641026,4677.94871795,4375.38461538,4617.43589744,4080.0,4553.84615385,4779.48717949,4645.64102564,4787.17948718,4581.53846154,4620.0,4464.1025641,4426.66666667,1694.0,1663.0,22.247,0.0,0.0,0.0,0.0,mike,0
125.0,4827.69230769,4630.76923077,4675.8974359,4381.53846154,4612.30769231,4078.46153846,4554.35897436,4779.48717949,4646.66666667,4791.28205128,4584.1025641,4624.1025641,4463.58974359,4428.71794872,1695.0,1663.0,22.254,0.0,0.0,0.0,0.0,mike,0
126.0,4832.30769231,4630.76923077,4681.02564103,4383.07692308,4597.94871795,4078.46153846,4554.35897436,4785.64102564,4647.69230769,4797.43589744,4582.56410256,4635.38461538,4471.28205128,4416.41025641,1693.0,1662.0,22.261,0.0,0.0,0.0,0.0,mike,0
127.0,4827.17948718,4631.79487179,4675.38461538,4376.92307692,4604.61538462,4081.53846154,4554.87179487,4794.87179487,4648.71794872,4795.8974359,4581.02564103,4628.20512821,4472.30769231,4415.8974359,1694.0,1663.0,22.27,0.0,0.0,0.0,0.0,mike,0
128.0,4826.66666667,4634.35897436,4670.25641026,4378.46153846,4604.1025641,4077.94871795,4554.35897436,4798.97435897,4654.87179487,4795.38461538,4585.12820513,4622.56410256,4472.82051282,4435.38461538,1694.0,1662.0,22.278,0.0,0.0,0.0,0.0,mike,0
0.0,4833.33333333,4634.87179487,4674.87179487,4383.07692308,4601.02564103,4076.41025641,4554.87179487,4801.02564103,4659.48717949,4799.48717949,4587.69230769,4630.25641026,4480.0,4438.97435897,1693.0,1664.0,22.286,0.0,0.0,0.0,0.0,mike,0
1.0,4825.64102564,4627.69230769,4667.69230769,4375.8974359,4612.30769231,4080.51282051,4552.30769231,4790.25641026,4650.25641026,4795.8974359,4583.58974359,4622.05128205,4472.82051282,4425.64102564,1694.0,1663.0,22.294,0.0,0.0,0.0,0.0,mike,0
2.0,4818.97435897,4624.61538462,4660.0,4370.76923077,4617.94871795,4078.97435897,4549.74358974,4778.46153846,4643.58974359,4792.82051282,4582.56410256,4614.35897436,4461.53846154,4420.51282051,1693.0,1663.0,22.301,0.0,0.0,0.0,0.0,mike,0
3.0,4828.20512821,4628.71794872,4675.38461538,4381.02564103,4608.71794872,4076.41025641,4552.82051282,4788.71794872,4651.79487179,4797.94871795,4587.69230769,4625.64102564,4468.71794872,4421.02564103,1694.0,1663.0,22.309,0.0,0.0,0.0,0.0,mike,0
4.0,4828.71794872,4622.05128205,4682.05128205,4381.53846154,4593.33333333,4074.87179487,4549.74358974,4794.35897436,4651.28205128,4797.43589744,4585.64102564,4627.69230769,4475.8974359,4413.33333333,1694.0,1663.0,22.317,0.0,0.0,0.0,0.0,mike,0
5.0,4824.61538462,4618.46153846,4675.38461538,4370.25641026,4593.33333333,4075.38461538,4550.25641026,4789.23076923,4647.69230769,4797.43589744,4583.58974359,4625.12820513,4471.79487179,4414.87179487,1694.0,1663.0,22.325,0.0,0.0,0.0,0.0,mike,0
6.0,4842.05128205,4636.41025641,4682.56410256,4377.43589744,4619.48717949,4086.66666667,4565.12820513,4796.92307692,4658.97435897,4810.25641026,4590.25641026,4634.35897436,4475.8974359,4437.94871795,1695.0,1663.0,22.333,0.0,0.0,0.0,0.0,mike,0
7.0,4847.17948718,4645.64102564,4685.64102564,4388.71794872,4630.25641026,4096.41025641,4580.51282051,4805.12820513,4667.69230769,4815.8974359,4591.28205128,4637.94871795,4483.07692308,4447.69230769,1696.0,1663.0,22.34,0.0,0.0,0.0,0.0,mike,0
8.0,4831.79487179,4638.97435897,4673.84615385,4385.12820513,4622.05128205,4094.87179487,4602.05128205,4799.48717949,4660.0,4804.1025641,4585.12820513,4626.15384615,4475.38461538,4431.28205128,1695.0,1663.0,22.348,0.0,0.0,0.0,0.0,mike,0
9.0,4829.23076923,4632.30769231,4669.74358974,4382.05128205,4615.38461538,4088.71794872,4632.30769231,4792.82051282,4649.74358974,4796.92307692,4577.43589744,4618.97435897,4464.61538462,4413.84615385,1695.0,1663.0,22.356,0.0,0.0,0.0,0.0,mike,0
10.0,4822.05128205,4618.46153846,4667.69230769,4381.02564103,4596.92307692,4078.46153846,4648.71794872,4783.58974359,4644.61538462,4796.41025641,4570.25641026,4614.87179487,4457.43589744,4403.07692308,1695.0,1663.0,22.363,0.0,0.0,0.0,0.0,mike,0
11.0,4811.79487179,4615.38461538,4665.12820513,4379.48717949,4591.79487179,4076.41025641,4651.28205128,4775.8974359,4644.61538462,4799.48717949,4575.38461538,4613.33333333,4458.97435897,4409.74358974,1695.0,1663.0,22.372,0.0,0.0,0.0,0.0,mike,0
12.0,4834.35897436,4633.84615385,4675.38461538,4383.58974359,4619.48717949,4087.17948718,4669.23076923,4789.23076923,4653.84615385,4809.74358974,4589.23076923,4624.1025641,4472.82051282,4430.25641026,1695.0,1662.0,22.38,0.0,0.0,0.0,0.0,mike,0
13.0,4857.43589744,4639.48717949,4681.53846154,4383.07692308,4622.56410256,4087.69230769,4694.35897436,4797.94871795,4658.97435897,4814.35897436,4588.71794872,4635.38461538,4478.97435897,4432.30769231,1695.0,1662.0,22.387,0.0,0.0,0.0,0.0,mike,0
14.0,4836.41025641,4629.23076923,4671.79487179,4376.92307692,4601.53846154,4079.48717949,4706.15384615,4785.64102564,4652.82051282,4808.20512821,4580.51282051,4628.71794872,4472.30769231,4422.56410256,1695.0,1661.0,22.395,0.0,0.0,0.0,0.0,mike,0
15.0,4818.46153846,4628.71794872,4665.12820513,4377.94871795,4611.79487179,4084.1025641,4709.74358974,4782.56410256,4648.71794872,4807.17948718,4583.07692308,4617.94871795,4470.25641026,4426.66666667,1697.0,1662.0,22.403,0.0,0.0,0.0,0.0,mike,0
16.0,4833.84615385,4632.82051282,4671.28205128,4384.1025641,4624.61538462,4092.30769231,4715.38461538,4794.35897436,4654.35897436,4812.82051282,4588.71794872,4626.15384615,4476.92307692,4430.76923077,1696.0,1661.0,22.411,0.0,0.0,0.0,0.0,mike,0
17.0,4848.20512821,4635.38461538,4682.56410256,4390.76923077,4609.23076923,4093.33333333,4720.51282051,4797.94871795,4660.0,4813.33333333,4589.74358974,4638.97435897,4478.46153846,4429.23076923,1696.0,1662.0,22.419,0.0,0.0,0.0,0.0,mike,0
18.0,4848.20512821,4643.58974359,4687.17948718,4393.33333333,4607.17948718,4091.79487179,4715.8974359,4792.30769231,4657.94871795,4811.28205128,4587.17948718,4635.8974359,4475.38461538,4430.76923077,1697.0,1661.0,22.426,0.0,0.0,0.0,0.0,mike,0
19.0,4847.69230769,4646.66666667,4687.17948718,4388.71794872,4627.17948718,4092.82051282,4711.28205128,4795.38461538,4654.87179487,4810.76923077,4584.61538462,4629.74358974,4471.28205128,4426.66666667,1696.0,1662.0,22.434,0.0,0.0,0.0,0.0,mike,0
20.0,4850.25641026,4637.43589744,4687.69230769,4385.12820513,4633.84615385,4092.82051282,4711.79487179,4792.30769231,4650.76923077,4806.15384615,4586.15384615,4632.82051282,4465.12820513,4416.92307692,1697.0,1661.0,22.442,0.0,0.0,0.0,0.0,mike,0
21.0,4842.56410256,4626.66666667,4682.56410256,4382.56410256,4603.58974359,4085.64102564,4703.58974359,4780.0,4645.64102564,4801.53846154,4584.61538462,4631.79487179,4463.58974359,4417.94871795,1696.0,1662.0,22.45,0.0,0.0,0.0,0.0,mike,0
22.0,4834.35897436,4632.30769231,4676.41025641,4384.1025641,4581.02564103,4081.02564103,4699.48717949,4784.61538462,4649.74358974,4808.71794872,4586.66666667,4628.71794872,4470.25641026,4428.71794872,1696.0,1663.0,22.458,0.0,0.0,0.0,0.0,mike,0
23.0,4841.53846154,4646.66666667,4683.07692308,4392.82051282,4614.35897436,4090.76923077,4708.71794872,4797.43589744,4658.97435897,4817.43589744,4592.30769231,4637.43589744,4477.94871795,4433.33333333,1696.0,1661.0,22.466,0.0,0.0,0.0,0.0,mike,0
24.0,4847.17948718,4641.53846154,4689.74358974,4391.79487179,4645.12820513,4096.41025641,4710.25641026,4798.97435897,4657.94871795,4811.28205128,4592.30769231,4643.07692308,4474.87179487,4431.79487179,1696.0,1661.0,22.473,0.0,0.0,0.0,0.0,mike,0
25.0,4844.1025641,4629.74358974,4684.61538462,4382.56410256,4625.64102564,4085.64102564,4703.58974359,4794.35897436,4654.87179487,4808.71794872,4591.28205128,4635.38461538,4472.30769231,4432.30769231,1696.0,1661.0,22.481,0.0,0.0,0.0,0.0,mike,0
26.0,4845.12820513,4632.30769231,4680.51282051,4385.64102564,4607.17948718,4080.51282051,4701.53846154,4790.25641026,4655.38461538,4815.38461538,4592.82051282,4630.25641026,4474.35897436,4433.84615385,1696.0,1661.0,22.489,0.0,0.0,0.0,0.0,mike,0
27.0,4837.43589744,4633.33333333,4676.92307692,4385.12820513,4612.82051282,4082.56410256,4691.28205128,4781.02564103,4646.66666667,4808.20512821,4587.17948718,4631.28205128,4466.66666667,4425.12820513,1696.0,1662.0,22.497,0.0,0.0,0.0,0.0,mike,0
28.0,4822.56410256,4625.12820513,4669.23076923,4372.82051282,4597.94871795,4075.38461538,4677.43589744,4775.38461538,4637.94871795,4800.0,4579.48717949,4628.71794872,4459.48717949,4412.30769231,1696.0,1662.0,22.505,0.0,0.0,0.0,0.0,mike,0
29.0,4831.28205128,4626.66666667,4673.33333333,4378.97435897,4587.17948718,4075.38461538,4685.12820513,4785.12820513,4644.61538462,4810.76923077,4590.76923077,4632.30769231,4470.25641026,4423.58974359,1696.0,1661.0,22.513,0.0,0.0,0.0,0.0,mike,0
30.0,4849.23076923,4638.97435897,4686.66666667,4398.46153846,4617.43589744,4089.74358974,4701.02564103,4796.41025641,4655.38461538,4820.51282051,4601.02564103,4640.0,4481.53846154,4443.07692308,1695.0,1661.0,22.52,0.0,0.0,0.0,0.0,mike,0
31.0,4847.17948718,4636.41025641,4684.61538462,4393.84615385,4629.23076923,4094.87179487,4702.56410256,4797.94871795,4658.97435897,4815.38461538,4593.84615385,4642.05128205,4476.92307692,4437.43589744,1696.0,1660.0,22.528,0.0,0.0,0.0,0.0,mike,0
32.0,4838.97435897,4618.46153846,4677.94871795,4378.46153846,4615.38461538,4091.79487179,4702.56410256,4798.97435897,4662.05128205,4813.84615385,4595.8974359,4641.02564103,4473.33333333,4425.64102564,1695.0,1661.0,22.536,0.0,0.0,0.0,0.0,mike,0
33.0,4841.02564103,4625.12820513,4683.58974359,4383.58974359,4612.82051282,4093.33333333,4706.15384615,4801.53846154,4664.61538462,4818.46153846,4604.61538462,4639.48717949,4475.8974359,4431.79487179,1696.0,1661.0,22.544,0.0,0.0,0.0,0.0,mike,0
34.0,4844.61538462,4653.33333333,4685.12820513,4395.8974359,4608.20512821,4088.20512821,4693.84615385,4792.30769231,4655.38461538,4810.25641026,4594.35897436,4629.74358974,4466.15384615,4434.87179487,1696.0,1661.0,22.552,0.0,0.0,0.0,0.0,mike,0
35.0,4842.56410256,4662.56410256,4680.51282051,4393.84615385,4603.58974359,4080.51282051,4676.92307692,4773.33333333,4638.97435897,4792.82051282,4573.33333333,4617.94871795,4445.64102564,4414.87179487,1696.0,1662.0,22.559,0.0,0.0,0.0,0.0,mike,0
36.0,4842.56410256,4660.0,4683.58974359,4391.28205128,4620.51282051,4085.64102564,4676.41025641,4765.64102564,4630.76923077,4782.05128205,4567.17948718,4614.35897436,4431.28205128,4402.05128205,1696.0,1661.0,22.567,0.0,0.0,0.0,0.0,mike,0
37.0,4853.84615385,4670.76923077,4686.15384615,4401.02564103,4628.20512821,4087.69230769,4676.41025641,4765.12820513,4628.71794872,4780.0,4563.07692308,4609.74358974,4421.02564103,4401.53846154,1696.0,1662.0,22.575,0.0,0.0,0.0,0.0,mike,0
38.0,4863.07692308,4676.41025641,4684.1025641,4404.1025641,4608.20512821,4081.53846154,4671.28205128,4766.15384615,4627.17948718,4777.43589744,4550.76923077,4602.05128205,4408.71794872,4392.30769231,1696.0,1662.0,22.583,0.0,0.0,0.0,0.0,mike,0
39.0,4852.82051282,4672.30769231,4685.64102564,4397.94871795,4612.30769231,4084.61538462,4678.97435897,4774.35897436,4631.28205128,4781.02564103,4546.66666667,4604.1025641,4407.69230769,4390.25641026,1696.0,1663.0,22.591,0.0,0.0,0.0,0.0,mike,0
40.0,4844.1025641,4678.97435897,4687.69230769,4402.56410256,4630.25641026,4092.82051282,4686.66666667,4783.58974359,4641.53846154,4794.87179487,4560.0,4612.82051282,4423.58974359,4408.20512821,1697.0,1662.0,22.598,0.0,0.0,0.0,0.0,mike,0
41.0,4849.74358974,4679.48717949,4685.64102564,4406.66666667,4615.38461538,4087.69230769,4677.43589744,4784.1025641,4647.69230769,4800.0,4569.23076923,4611.79487179,4430.25641026,4417.43589744,1695.0,1664.0,22.606,0.0,0.0,0.0,0.0,mike,0
42.0,4849.23076923,4667.69230769,4686.66666667,4399.48717949,4601.53846154,4080.51282051,4671.79487179,4781.53846154,4645.12820513,4795.38461538,4562.56410256,4608.20512821,4421.02564103,4404.1025641,1696.0,1665.0,22.614,0.0,0.0,0.0,0.0,mike,0
43.0,4845.12820513,4666.15384615,4689.74358974,4400.0,4623.07692308,4081.53846154,4676.92307692,4782.56410256,4644.1025641,4794.35897436,4563.07692308,4613.84615385,4421.53846154,4396.92307692,1695.0,1665.0,22.622,0.0,0.0,0.0,0.0,mike,0
44.0,4852.82051282,4672.30769231,4688.20512821,4409.23076923,4629.74358974,4083.07692308,4676.92307692,4782.05128205,4647.17948718,4795.8974359,4570.76923077,4622.05128205,4428.20512821,4406.66666667,1696.0,1665.0,22.63,0.0,0.0,0.0,0.0,mike,0
45.0,4862.56410256,4675.38461538,4686.15384615,4409.23076923,4608.20512821,4085.12820513,4681.53846154,4785.64102564,4648.20512821,4796.92307692,4570.25641026,4629.23076923,4429.23076923,4415.38461538,1695.0,1664.0,22.638,0.0,0.0,0.0,0.0,mike,0
46.0,4857.94871795,4674.87179487,4688.71794872,4401.02564103,4613.84615385,4092.82051282,4694.87179487,4796.41025641,4648.71794872,4794.87179487,4570.76923077,4629.23076923,4429.74358974,4411.28205128,1695.0,1667.0,22.645,0.0,0.0,0.0,0.0,mike,0
47.0,4847.17948718,4669.74358974,4688.71794872,4397.43589744,4630.25641026,4094.87179487,4694.87179487,4797.43589744,4648.71794872,4784.1025641,4567.69230769,4618.46153846,4427.69230769,4399.48717949,1696.0,1667.0,22.653,0.0,0.0,0.0,0.0,mike,0
48.0,4841.53846154,4661.53846154,4678.97435897,4396.92307692,4615.8974359,4084.61538462,4680.0,4786.15384615,4642.05128205,4780.0,4555.38461538,4609.74358974,4419.48717949,4395.38461538,1695.0,1668.0,22.661,0.0,0.0,0.0,0.0,mike,0
49.0,4842.56410256,4663.58974359,4674.87179487,4398.97435897,4606.66666667,4080.51282051,4674.87179487,4779.48717949,4639.48717949,4792.30769231,4557.43589744,4612.82051282,4420.0,4403.07692308,1695.0,1667.0,22.669,0.0,0.0,0.0,0.0,mike,0
50.0,4845.12820513,4668.20512821,4678.97435897,4400.51282051,4624.61538462,4087.17948718,4680.0,4784.61538462,4645.64102564,4798.46153846,4572.82051282,4618.46153846,4430.25641026,4406.15384615,1694.0,1667.0,22.677,0.0,0.0,0.0,0.0,mike,0
51.0,4840.51282051,4656.92307692,4672.82051282,4396.41025641,4620.0,4085.12820513,4674.87179487,4785.64102564,4641.02564103,4786.15384615,4569.74358974,4614.87179487,4424.61538462,4388.20512821,1695.0,1666.0,22.685,0.0,0.0,0.0,0.0,mike,0
52.0,4824.1025641,4645.64102564,4661.53846154,4393.84615385,4593.84615385,4075.8974359,4669.23076923,4776.92307692,4630.25641026,4778.46153846,4555.8974359,4605.64102564,4411.28205128,4373.33333333,1694.0,1665.0,22.692,0.0,0.0,0.0,0.0,mike,0
53.0,4814.87179487,4644.61538462,4662.56410256,4396.41025641,4604.1025641,4078.97435897,4670.76923077,4766.15384615,4630.25641026,4780.51282051,4551.28205128,4597.94871795,4410.25641026,4377.43589744,1695.0,1665.0,22.7,0.0,0.0,0.0,0.0,mike,0
54.0,4822.05128205,4648.20512821,4665.64102564,4396.41025641,4627.69230769,4086.66666667,4672.30769231,4763.58974359,4631.79487179,4778.46153846,4549.74358974,4595.8974359,4410.25641026,4379.48717949,1694.0,1663.0,22.708,0.0,0.0,0.0,0.0,mike,0
55.0,4827.69230769,4656.41025641,4664.1025641,4397.43589744,4612.30769231,4084.61538462,4673.84615385,4769.74358974,4633.33333333,4778.97435897,4556.92307692,4601.02564103,4413.84615385,4385.64102564,1695.0,1664.0,22.722,0.0,0.0,0.0,0.0,mike,0
56.0,4828.20512821,4662.05128205,4664.1025641,4400.51282051,4595.8974359,4081.02564103,4671.28205128,4770.25641026,4634.87179487,4783.58974359,4566.66666667,4608.20512821,4423.07692308,4396.92307692,1695.0,1663.0,22.724,0.0,0.0,0.0,0.0,mike,0
57.0,4832.30769231,4653.84615385,4665.64102564,4396.41025641,4615.38461538,4080.51282051,4665.64102564,4763.07692308,4629.74358974,4777.94871795,4559.48717949,4605.64102564,4419.48717949,4390.76923077,1694.0,1664.0,22.731,0.0,0.0,0.0,0.0,mike,0
58.0,4826.15384615,4644.61538462,4663.07692308,4391.79487179,4619.48717949,4076.92307692,4663.07692308,4759.48717949,4621.53846154,4764.61538462,4549.74358974,4597.43589744,4408.20512821,4375.38461538,1695.0,1662.0,22.739,0.0,0.0,0.0,0.0,mike,0
59.0,4817.43589744,4645.64102564,4666.15384615,4397.43589744,4595.38461538,4072.82051282,4664.1025641,4762.05128205,4622.05128205,4766.66666667,4552.30769231,4601.02564103,4411.28205128,4378.97435897,1693.0,1662.0,22.747,0.0,0.0,0.0,0.0,mike,0
60.0,4824.1025641,4646.15384615,4672.30769231,4398.97435897,4596.92307692,4081.53846154,4665.12820513,4771.28205128,4632.82051282,4780.0,4556.92307692,4609.74358974,4415.8974359,4392.82051282,1694.0,1662.0,22.755,0.0,0.0,0.0,0.0,mike,0
61.0,4830.25641026,4649.74358974,4666.15384615,4393.33333333,4622.05128205,4088.71794872,4664.1025641,4779.48717949,4640.0,4781.02564103,4559.48717949,4610.25641026,4412.82051282,4397.94871795,1693.0,1662.0,22.763,0.0,0.0,0.0,0.0,mike,0
62.0,4828.71794872,4654.87179487,4663.58974359,4394.35897436,4620.51282051,4080.0,4663.58974359,4783.07692308,4642.05128205,4778.46153846,4570.76923077,4614.35897436,4421.02564103,4395.38461538,1693.0,1662.0,22.771,0.0,0.0,0.0,0.0,mike,0
63.0,4830.76923077,4650.76923077,4669.23076923,4397.94871795,4596.41025641,4072.82051282,4662.56410256,4782.56410256,4645.12820513,4783.58974359,4576.41025641,4620.51282051,4432.82051282,4395.8974359,1692.0,1661.0,22.778,0.0,0.0,0.0,0.0,mike,0
64.0,4831.28205128,4647.17948718,4668.71794872,4397.43589744,4604.61538462,4084.61538462,4666.15384615,4784.61538462,4650.25641026,4785.64102564,4571.79487179,4619.48717949,4433.84615385,4403.07692308,1693.0,1661.0,22.786,0.0,0.0,0.0,0.0,mike,0
65.0,4824.61538462,4652.30769231,4666.15384615,4396.41025641,4624.1025641,4091.28205128,4665.12820513,4784.61538462,4645.64102564,4781.53846154,4567.69230769,4616.41025641,4427.69230769,4394.87179487,1693.0,1661.0,22.794,0.0,0.0,0.0,0.0,mike,0
66.0,4824.1025641,4656.41025641,4669.23076923,4394.87179487,4606.15384615,4079.48717949,4657.94871795,4775.38461538,4634.35897436,4778.97435897,4568.20512821,4611.79487179,4420.51282051,4388.20512821,1693.0,1661.0,22.802,0.0,0.0,0.0,0.0,mike,0
67.0,4830.25641026,4656.41025641,4669.23076923,4398.97435897,4592.82051282,4075.38461538,4656.41025641,4768.71794872,4631.28205128,4780.0,4569.23076923,4607.17948718,4420.0,4400.0,1693.0,1662.0,22.81,0.0,0.0,0.0,0.0,mike,0
68.0,4829.23076923,4652.30769231,4660.0,4401.02564103,4605.64102564,4078.97435897,4652.30769231,4763.07692308,4624.1025641,4770.76923077,4560.0,4602.56410256,4414.87179487,4392.82051282,1693.0,1660.0,22.817,0.0,0.0,0.0,0.0,mike,0
69.0,4816.41025641,4637.43589744,4650.76923077,4387.69230769,4604.61538462,4068.20512821,4636.41025641,4749.23076923,4606.15384615,4752.30769231,4550.76923077,4590.76923077,4398.46153846,4370.25641026,1692.0,1661.0,22.825,0.0,0.0,0.0,0.0,mike,0
70.0,4809.23076923,4633.33333333,4649.23076923,4380.0,4595.8974359,4058.46153846,4629.74358974,4742.05128205,4602.56410256,4748.71794872,4551.79487179,4584.61538462,4393.84615385,4370.76923077,1694.0,1661.0,22.833,0.0,0.0,0.0,0.0,mike,0
71.0,4817.94871795,4648.71794872,4655.8974359,4392.82051282,4602.56410256,4066.15384615,4640.0,4754.35897436,4618.46153846,4760.51282051,4556.41025641,4595.38461538,4407.69230769,4382.56410256,1693.0,1661.0,22.841,0.0,0.0,0.0,0.0,mike,0
72.0,4827.69230769,4657.94871795,4663.58974359,4400.51282051,4606.66666667,4075.38461538,4646.15384615,4765.64102564,4630.25641026,4770.76923077,4561.02564103,4604.61538462,4415.8974359,4385.64102564,1694.0,1661.0,22.849,0.0,0.0,0.0,0.0,mike,0
73.0,4830.25641026,4656.41025641,4671.28205128,4397.94871795,4601.53846154,4077.43589744,4646.66666667,4771.79487179,4636.92307692,4779.48717949,4571.28205128,4607.17948718,4420.51282051,4395.38461538,1692.0,1660.0,22.857,0.0,0.0,0.0,0.0,mike,0
74.0,4830.76923077,4656.41025641,4675.8974359,4397.43589744,4602.56410256,4080.0,4652.82051282,4780.0,4645.12820513,4788.20512821,4574.35897436,4616.92307692,4429.74358974,4402.05128205,1694.0,1662.0,22.864,0.0,0.0,0.0,0.0,mike,0
75.0,4826.66666667,4652.30769231,4667.17948718,4397.94871795,4602.05128205,4078.97435897,4642.56410256,4774.35897436,4639.48717949,4781.02564103,4557.94871795,4619.48717949,4423.58974359,4389.23076923,1693.0,1661.0,22.872,0.0,0.0,0.0,0.0,mike,0
76.0,4824.1025641,4645.64102564,4662.05128205,4397.94871795,4596.92307692,4075.8974359,4609.74358974,4765.12820513,4631.28205128,4772.30769231,4549.74358974,4606.66666667,4413.84615385,4389.74358974,1693.0,1662.0,22.88,0.0,0.0,0.0,0.0,mike,0
77.0,4831.28205128,4651.28205128,4666.15384615,4402.05128205,4610.76923077,4081.02564103,4587.69230769,4768.71794872,4633.84615385,4777.43589744,4553.84615385,4604.1025641,4418.46153846,4401.02564103,1694.0,1662.0,22.888,0.0,0.0,0.0,0.0,mike,0
78.0,4827.17948718,4648.20512821,4662.05128205,4397.43589744,4620.0,4081.02564103,4585.12820513,4765.12820513,4629.23076923,4771.79487179,4547.17948718,4604.61538462,4414.35897436,4386.66666667,1693.0,1662.0,22.896,0.0,0.0,0.0,0.0,mike,0
79.0,4813.33333333,4635.8974359,4656.41025641,4388.20512821,4598.97435897,4070.76923077,4576.41025641,4756.41025641,4621.02564103,4761.53846154,4536.41025641,4599.48717949,4401.53846154,4369.23076923,1693.0,1662.0,22.903,0.0,0.0,0.0,0.0,mike,0
80.0,4809.23076923,4636.41025641,4653.33333333,4389.74358974,4591.28205128,4066.15384615,4553.33333333,4760.0,4620.51282051,4762.05128205,4536.41025641,4597.43589744,4402.05128205,4376.41025641,1693.0,1662.0,22.911,0.0,0.0,0.0,0.0,mike,0
81.0,4807.69230769,4642.05128205,4648.20512821,4392.30769231,4615.38461538,4068.20512821,4537.43589744,4763.07692308,4623.58974359,4765.12820513,4537.43589744,4593.84615385,4404.61538462,4384.61538462,1693.0,1662.0,22.919,0.0,0.0,0.0,0.0,mike,0
82.0,4811.79487179,4644.1025641,4653.33333333,4392.30769231,4609.23076923,4070.25641026,4534.35897436,4763.07692308,4628.20512821,4764.61538462,4535.8974359,4589.23076923,4405.64102564,4377.94871795,1692.0,1662.0,22.927,0.0,0.0,0.0,0.0,mike,0
83.0,4826.15384615,4644.1025641,4660.0,4391.28205128,4584.1025641,4073.84615385,4532.30769231,4767.17948718,4631.79487179,4764.61538462,4536.92307692,4588.71794872,4410.25641026,4376.41025641,1694.0,1662.0,22.935,0.0,0.0,0.0,0.0,mike,0
84.0,4821.02564103,4642.05128205,4653.84615385,4394.35897436,4600.0,4074.35897436,4532.30769231,4767.17948718,4629.74358974,4765.12820513,4537.94871795,4587.69230769,4410.76923077,4382.05128205,1693.0,1662.0,22.943,0.0,0.0,0.0,0.0,mike,0
85.0,4807.17948718,4642.56410256,4649.74358974,4396.92307692,4611.79487179,4068.20512821,4535.38461538,4764.1025641,4627.69230769,4766.15384615,4538.97435897,4587.17948718,4409.23076923,4387.69230769,1693.0,1663.0,22.95,0.0,0.0,0.0,0.0,mike,0
86.0,4816.92307692,4644.1025641,4658.97435897,4392.30769231,4590.25641026,4065.12820513,4529.23076923,4763.58974359,4628.71794872,4767.17948718,4540.51282051,4597.43589744,4413.84615385,4386.15384615,1693.0,1661.0,22.958,0.0,0.0,0.0,0.0,mike,0
87.0,4822.56410256,4640.0,4664.1025641,4386.66666667,4589.74358974,4066.66666667,4522.56410256,4763.07692308,4628.20512821,4762.05128205,4538.97435897,4605.12820513,4412.82051282,4380.0,1693.0,1663.0,22.966,0.0,0.0,0.0,0.0,mike,0
88.0,4817.43589744,4636.92307692,4665.64102564,4392.82051282,4608.71794872,4067.69230769,4531.28205128,4764.61538462,4631.28205128,4763.07692308,4540.0,4604.61538462,4411.28205128,4385.12820513,1694.0,1661.0,22.974,0.0,0.0,0.0,0.0,mike,0
89.0,4822.05128205,4635.8974359,4663.07692308,4400.0,4596.41025641,4066.15384615,4535.38461538,4767.69230769,4632.82051282,4766.66666667,4544.1025641,4603.58974359,4412.82051282,4388.71794872,1692.0,1662.0,22.982,0.0,0.0,0.0,0.0,mike,0
90.0,4822.05128205,4637.43589744,4657.43589744,4392.82051282,4581.02564103,4066.66666667,4529.23076923,4767.17948718,4630.76923077,4765.64102564,4551.79487179,4601.02564103,4414.35897436,4387.17948718,1693.0,1663.0,22.99,0.0,0.0,0.0,0.0,mike,0
91.0,4813.84615385,4644.1025641,4661.02564103,4390.25641026,4598.46153846,4070.76923077,4533.33333333,4766.15384615,4633.33333333,4766.15384615,4555.8974359,4600.51282051,4416.92307692,4390.76923077,1693.0,1661.0,22.997,0.0,0.0,0.0,0.0,mike,0
92.0,4813.84615385,4640.0,4660.51282051,4395.38461538,4608.20512821,4069.23076923,4533.33333333,4764.61538462,4632.82051282,4766.66666667,4545.12820513,4598.46153846,4414.35897436,4388.71794872,1693.0,1661.0,23.006,0.0,0.0,0.0,0.0,mike,0
93.0,4815.8974359,4630.76923077,4649.74358974,4392.82051282,4596.41025641,4062.05128205,4526.15384615,4763.58974359,4627.17948718,4765.12820513,4537.43589744,4596.92307692,4411.79487179,4385.12820513,1693.0,1662.0,23.013,0.0,0.0,0.0,0.0,mike,0
94.0,4814.87179487,4632.30769231,4647.17948718,4386.15384615,4598.46153846,4061.02564103,4524.61538462,4763.07692308,4624.61538462,4765.64102564,4538.97435897,4597.94871795,4412.30769231,4386.66666667,1694.0,1662.0,23.021,0.0,0.0,0.0,0.0,mike,0
95.0,4812.30769231,4632.82051282,4654.35897436,4383.58974359,4601.53846154,4062.56410256,4525.64102564,4764.1025641,4627.17948718,4766.15384615,4543.07692308,4600.0,4410.76923077,4378.97435897,1693.0,1661.0,23.029,0.0,0.0,0.0,0.0,mike,0
96.0,4809.74358974,4631.28205128,4657.94871795,4385.64102564,4589.23076923,4062.56410256,4527.69230769,4765.64102564,4633.33333333,4767.69230769,4550.25641026,4603.07692308,4418.46153846,4376.41025641,1693.0,1663.0,23.036,0.0,0.0,0.0,0.0,mike,0
97.0,4815.8974359,4637.94871795,4665.12820513,4391.79487179,4587.69230769,4066.15384615,4536.92307692,4768.71794872,4635.38461538,4769.23076923,4557.43589744,4606.15384615,4430.76923077,4399.48717949,1694.0,1662.0,23.044,0.0,0.0,0.0,0.0,mike,0
98.0,4820.0,4638.97435897,4668.71794872,4393.84615385,4597.94871795,4068.71794872,4539.48717949,4767.69230769,4625.64102564,4758.97435897,4553.84615385,4602.05128205,4418.46153846,4404.1025641,1692.0,1663.0,23.052,0.0,0.0,0.0,0.0,mike,0
99.0,4811.28205128,4629.74358974,4655.38461538,4388.20512821,4606.15384615,4066.66666667,4534.87179487,4757.94871795,4611.79487179,4738.97435897,4535.8974359,4588.71794872,4391.28205128,4370.25641026,1694.0,1661.0,23.06,0.0,0.0,0.0,0.0,mike,0
100.0,4808.20512821,4623.07692308,4645.64102564,4382.56410256,4601.53846154,4065.12820513,4535.38461538,4747.17948718,4606.66666667,4730.76923077,4521.53846154,4578.97435897,4378.97435897,4355.38461538,1693.0,1662.0,23.068,0.0,0.0,0.0,0.0,mike,0
101.0,4812.30769231,4621.02564103,4655.38461538,4386.15384615,4584.1025641,4065.12820513,4537.43589744,4751.28205128,4611.28205128,4739.48717949,4525.64102564,4584.61538462,4383.58974359,4372.30769231,1693.0,1662.0,23.076,0.0,0.0,0.0,0.0,mike,0
102.0,4813.84615385,4626.15384615,4665.12820513,4391.28205128,4587.17948718,4066.15384615,4538.97435897,4763.58974359,4620.51282051,4753.84615385,4536.41025641,4600.0,4398.46153846,4382.05128205,1693.0,1661.0,23.083,0.0,0.0,0.0,0.0,mike,0
103.0,4812.30769231,4631.79487179,4661.53846154,4389.74358974,4602.56410256,4067.69230769,4540.51282051,4764.1025641,4625.12820513,4762.05128205,4540.0,4604.1025641,4411.28205128,4384.61538462,1693.0,1662.0,23.091,0.0,0.0,0.0,0.0,mike,0
104.0,4811.79487179,4633.33333333,4661.02564103,4391.28205128,4595.8974359,4067.69230769,4538.97435897,4757.94871795,4625.12820513,4763.07692308,4547.69230769,4600.0,4412.30769231,4393.33333333,1693.0,1661.0,23.099,0.0,0.0,0.0,0.0,mike,0
105.0,4820.0,4637.94871795,4667.17948718,4393.84615385,4593.33333333,4069.74358974,4538.46153846,4764.1025641,4630.25641026,4764.61538462,4556.92307692,4609.23076923,4416.92307692,4399.48717949,1694.0,1663.0,23.107,0.0,0.0,0.0,0.0,mike,0
106.0,4831.79487179,4649.74358974,4670.25641026,4394.35897436,4616.41025641,4075.38461538,4540.51282051,4770.76923077,4635.8974359,4767.69230769,4557.43589744,4619.48717949,4428.71794872,4401.02564103,1694.0,1663.0,23.115,0.0,0.0,0.0,0.0,mike,0
107.0,4832.82051282,4651.28205128,4673.33333333,4398.46153846,4617.94871795,4074.87179487,4541.53846154,4769.23076923,4634.87179487,4766.66666667,4556.92307692,4619.48717949,4428.20512821,4397.43589744,1694.0,1663.0,23.121,0.0,0.0,0.0,0.0,mike,0
108.0,4830.25641026,4638.97435897,4675.38461538,4401.02564103,4590.25641026,4068.71794872,4538.46153846,4766.15384615,4631.79487179,4764.1025641,4555.38461538,4613.84615385,4414.87179487,4383.58974359,1693.0,1660.0,23.13,0.0,0.0,0.0,0.0,mike,0
109.0,4827.17948718,4631.28205128,4668.71794872,4395.8974359,4578.46153846,4066.15384615,4538.46153846,4765.64102564,4627.69230769,4763.07692308,4552.30769231,4606.15384615,4410.76923077,4380.0,1692.0,1660.0,23.138,0.0,0.0,0.0,0.0,mike,0
110.0,4816.41025641,4630.25641026,4662.56410256,4391.79487179,4595.38461538,4066.15384615,4541.53846154,4764.1025641,4624.1025641,4760.51282051,4550.76923077,4598.97435897,4413.84615385,4393.84615385,1695.0,1660.0,23.146,0.0,0.0,0.0,0.0,mike,0
111.0,4812.82051282,4630.25641026,4667.69230769,4391.79487179,4618.46153846,4065.64102564,4540.0,4761.53846154,4623.58974359,4758.46153846,4550.76923077,4597.43589744,4412.82051282,4396.92307692,1692.0,1662.0,23.154,0.0,0.0,0.0,0.0,mike,0
112.0,4824.1025641,4637.94871795,4669.23076923,4391.28205128,4616.92307692,4068.71794872,4538.46153846,4758.46153846,4626.66666667,4758.97435897,4553.33333333,4600.0,4413.33333333,4383.07692308,1693.0,1663.0,23.162,0.0,0.0,0.0,0.0,mike,0
113.0,4831.79487179,4641.53846154,4664.61538462,4390.76923077,4598.97435897,4068.71794872,4536.92307692,4754.35897436,4625.12820513,4757.43589744,4554.87179487,4600.0,4416.41025641,4376.41025641,1692.0,1663.0,23.169,0.0,0.0,0.0,0.0,mike,0
114.0,4825.64102564,4630.76923077,4665.12820513,4389.74358974,4596.41025641,4061.53846154,4532.30769231,4750.76923077,4619.48717949,4751.28205128,4549.23076923,4598.97435897,4413.33333333,4381.53846154,1692.0,1662.0,23.177,0.0,0.0,0.0,0.0,mike,0
115.0,4815.8974359,4627.17948718,4665.64102564,4388.71794872,4603.58974359,4060.0,4531.28205128,4752.30769231,4620.0,4752.30769231,4547.69230769,4600.51282051,4410.76923077,4378.46153846,1692.0,1662.0,23.185,0.0,0.0,0.0,0.0,mike,0
116.0,4813.33333333,4633.84615385,4664.61538462,4390.25641026,4594.35897436,4064.61538462,4538.46153846,4762.56410256,4625.12820513,4760.51282051,4553.33333333,4603.58974359,4416.41025641,4381.53846154,1692.0,1662.0,23.193,0.0,0.0,0.0,0.0,mike,0
117.0,4816.41025641,4630.25641026,4665.64102564,4391.79487179,4579.48717949,4062.56410256,4536.92307692,4766.15384615,4627.69230769,4764.1025641,4553.33333333,4603.58974359,4420.51282051,4400.0,1691.0,1663.0,23.201,0.0,0.0,0.0,0.0,mike,0
118.0,4815.8974359,4622.05128205,4659.48717949,4390.25641026,4583.07692308,4057.43589744,4523.58974359,4754.87179487,4623.58974359,4754.87179487,4550.25641026,4596.92307692,4415.8974359,4394.87179487,1691.0,1663.0,23.208,0.0,0.0,0.0,0.0,mike,0
119.0,4811.79487179,4621.02564103,4653.84615385,4387.69230769,4592.30769231,4057.94871795,4523.07692308,4751.79487179,4620.0,4750.76923077,4552.30769231,4595.8974359,4411.28205128,4373.33333333,1691.0,1664.0,23.216,0.0,0.0,0.0,0.0,mike,0
120.0,4813.84615385,4622.05128205,4658.97435897,4385.64102564,4591.79487179,4061.02564103,4530.25641026,4762.56410256,4623.07692308,4760.0,4554.35897436,4602.56410256,4413.33333333,4377.94871795,1692.0,1664.0,23.224,0.0,0.0,0.0,0.0,mike,0
121.0,4813.84615385,4624.1025641,4654.87179487,4383.07692308,4579.48717949,4059.48717949,4529.23076923,4766.15384615,4628.20512821,4762.56410256,4551.79487179,4595.38461538,4415.38461538,4384.1025641,1692.0,1664.0,23.232,0.0,0.0,0.0,0.0,mike,0
122.0,4810.25641026,4625.12820513,4645.64102564,4382.05128205,4581.02564103,4055.8974359,4530.25641026,4762.05128205,4628.71794872,4760.0,4550.25641026,4584.61538462,4412.30769231,4374.87179487,1694.0,1664.0,23.24,0.0,0.0,0.0,0.0,mike,0
123.0,4810.25641026,4624.61538462,4652.30769231,4387.69230769,4600.0,4059.48717949,4535.38461538,4762.56410256,4628.71794872,4764.1025641,4552.82051282,4592.30769231,4414.35897436,4378.46153846,1693.0,1663.0,23.248,0.0,0.0,0.0,0.0,mike,0
124.0,4815.8974359,4624.1025641,4660.51282051,4392.30769231,4608.20512821,4067.69230769,4540.0,4765.12820513,4631.28205128,4766.15384615,4553.33333333,4603.58974359,4422.56410256,4384.61538462,1694.0,1664.0,23.255,0.0,0.0,0.0,0.0,mike,0
125.0,4827.69230769,4627.17948718,4663.58974359,4394.35897436,4600.0,4069.23076923,4563.58974359,4767.17948718,4632.30769231,4765.64102564,4554.35897436,4606.66666667,4427.69230769,4386.15384615,1694.0,1664.0,23.263,0.0,0.0,0.0,0.0,mike,0
126.0,4828.71794872,4632.82051282,4668.20512821,4396.92307692,4603.07692308,4068.20512821,4608.71794872,4767.69230769,4633.33333333,4773.84615385,4558.97435897,4608.20512821,4431.79487179,4398.97435897,1694.0,1664.0,23.271,0.0,0.0,0.0,0.0,mike,0
127.0,4814.87179487,4632.30769231,4662.56410256,4392.82051282,4611.79487179,4068.71794872,4632.82051282,4761.53846154,4632.30769231,4774.87179487,4557.43589744,4606.66666667,4427.69230769,4393.84615385,1694.0,1662.0,23.279,0.0,0.0,0.0,0.0,mike,0
128.0,4806.15384615,4625.12820513,4652.82051282,4387.69230769,4593.33333333,4063.58974359,4629.23076923,4754.87179487,4626.66666667,4763.58974359,4549.23076923,4598.46153846,4416.41025641,4367.17948718,1693.0,1663.0,23.286,0.0,0.0,0.0,0.0,mike,0
0.0,4812.30769231,4623.58974359,4653.33333333,4389.23076923,4580.51282051,4060.0,4634.87179487,4752.82051282,4624.61538462,4762.56410256,4549.74358974,4589.23076923,4411.28205128,4364.1025641,1695.0,1661.0,23.295,0.0,0.0,0.0,0.0,mike,0
1.0,4813.84615385,4624.61538462,4648.71794872,4389.23076923,4593.33333333,4064.61538462,4657.94871795,4749.74358974,4622.05128205,4763.07692308,4552.30769231,4582.05128205,4410.25641026,4372.82051282,1693.0,1662.0,23.302,0.0,0.0,0.0,0.0,mike,0
2.0,4803.07692308,4619.48717949,4638.46153846,4387.17948718,4598.97435897,4067.69230769,4674.87179487,4747.17948718,4615.8974359,4751.79487179,4544.1025641,4579.48717949,4402.05128205,4360.51282051,1694.0,1661.0,23.31,0.0,0.0,0.0,0.0,mike,0
3.0,4798.46153846,4613.84615385,4639.48717949,4388.20512821,4602.56410256,4066.66666667,4675.38461538,4746.66666667,4612.30769231,4744.61538462,4536.41025641,4580.51282051,4396.41025641,4352.30769231,1694.0,1661.0,23.318,0.0,0.0,0.0,0.0,mike,0
4.0,4795.8974359,4612.30769231,4645.64102564,4383.58974359,4598.97435897,4066.15384615,4674.35897436,4746.66666667,4616.92307692,4751.28205128,4540.51282051,4579.48717949,4404.1025641,4362.05128205,1694.0,1662.0,23.326,0.0,0.0,0.0,0.0,mike,0
5.0,4798.97435897,4622.05128205,4651.79487179,4384.61538462,4588.71794872,4068.71794872,4682.56410256,4754.35897436,4627.69230769,4762.56410256,4551.28205128,4588.20512821,4416.41025641,4372.82051282,1693.0,1662.0,23.334,0.0,0.0,0.0,0.0,mike,0
6.0,4820.51282051,4635.8974359,4664.61538462,4397.43589744,4602.56410256,4076.41025641,4693.84615385,4768.71794872,4639.48717949,4774.87179487,4562.05128205,4606.15384615,4427.17948718,4381.02564103,1693.0,1662.0,23.341,0.0,0.0,0.0,0.0,mike,0
7.0,4832.82051282,4637.43589744,4667.69230769,4402.56410256,4617.94871795,4078.97435897,4695.38461538,4773.33333333,4644.61538462,4782.56410256,4570.76923077,4613.33333333,4433.84615385,4387.17948718,1693.0,1663.0,23.348,0.0,0.0,0.0,0.0,mike,0
8.0,4820.0,4632.30769231,4654.87179487,4395.38461538,4601.53846154,4070.76923077,4683.58974359,4768.20512821,4640.0,4780.0,4570.76923077,4605.12820513,4432.82051282,4385.12820513,1693.0,1664.0,23.356,0.0,0.0,0.0,0.0,mike,0
9.0,4809.23076923,4625.64102564,4647.69230769,4388.20512821,4597.94871795,4062.05128205,4672.82051282,4763.07692308,4632.30769231,4770.25641026,4558.46153846,4596.41025641,4423.07692308,4381.53846154,1692.0,1663.0,23.364,0.0,0.0,0.0,0.0,mike,0
10.0,4812.82051282,4619.48717949,4655.38461538,4387.69230769,4609.74358974,4064.61538462,4675.8974359,4763.07692308,4630.25641026,4764.1025641,4552.30769231,4600.0,4419.48717949,4383.07692308,1691.0,1663.0,23.373,0.0,0.0,0.0,0.0,mike,0
11.0,4813.33333333,4618.46153846,4659.48717949,4389.74358974,4596.41025641,4067.17948718,4678.97435897,4765.64102564,4633.33333333,4765.64102564,4563.58974359,4606.15384615,4427.17948718,4383.58974359,1692.0,1662.0,23.381,0.0,0.0,0.0,0.0,mike,0
12.0,4804.61538462,4617.94871795,4651.28205128,4386.66666667,4590.25641026,4062.05128205,4670.76923077,4761.53846154,4631.79487179,4767.17948718,4570.76923077,4604.1025641,4426.15384615,4382.56410256,1690.0,1661.0,23.388,0.0,0.0,0.0,0.0,mike,0
13.0,4795.8974359,4614.35897436,4642.56410256,4381.53846154,4604.1025641,4062.56410256,4663.58974359,4751.79487179,4624.61538462,4764.1025641,4560.51282051,4598.97435897,4415.8974359,4385.12820513,1692.0,1663.0,23.395,0.0,0.0,0.0,0.0,mike,0
14.0,4797.94871795,4615.38461538,4640.0,4381.02564103,4600.0,4064.1025641,4656.41025641,4746.15384615,4615.38461538,4754.35897436,4551.79487179,4595.8974359,4413.33333333,4384.1025641,1692.0,1662.0,23.403,0.0,0.0,0.0,0.0,mike,0
15.0,4805.12820513,4612.30769231,4644.1025641,4381.02564103,4584.1025641,4055.8974359,4649.23076923,4747.17948718,4612.82051282,4750.76923077,4553.84615385,4592.82051282,4413.84615385,4369.74358974,1692.0,1663.0,23.412,0.0,0.0,0.0,0.0,mike,0
16.0,4801.53846154,4601.53846154,4650.25641026,4377.94871795,4576.92307692,4049.74358974,4650.25641026,4749.23076923,4617.43589744,4754.87179487,4553.33333333,4590.25641026,4411.28205128,4365.12820513,1692.0,1661.0,23.42,0.0,0.0,0.0,0.0,mike,0
17.0,4796.92307692,4606.15384615,4649.74358974,4380.51282051,4580.0,4056.41025641,4652.30769231,4747.69230769,4617.43589744,4751.79487179,4552.82051282,4594.35897436,4410.25641026,4375.38461538,1692.0,1661.0,23.427,0.0,0.0,0.0,0.0,mike,0
18.0,4799.48717949,4618.97435897,4645.12820513,4384.1025641,4590.76923077,4059.48717949,4651.28205128,4748.71794872,4617.43589744,4751.79487179,4554.35897436,4601.53846154,4414.87179487,4374.35897436,1692.0,1660.0,23.435,0.0,0.0,0.0,0.0,mike,0
19.0,4803.58974359,4618.46153846,4646.15384615,4384.1025641,4603.58974359,4060.0,4657.43589744,4760.51282051,4633.33333333,4763.58974359,4556.41025641,4602.05128205,4420.51282051,4373.84615385,1692.0,1661.0,23.443,0.0,0.0,0.0,0.0,mike,0
20.0,4809.74358974,4615.8974359,4652.30769231,4389.23076923,4606.15384615,4066.15384615,4665.64102564,4770.25641026,4645.64102564,4770.25641026,4563.58974359,4603.07692308,4426.15384615,4392.82051282,1693.0,1661.0,23.451,0.0,0.0,0.0,0.0,mike,0
21.0,4814.87179487,4620.51282051,4661.02564103,4394.35897436,4589.74358974,4069.74358974,4665.64102564,4767.69230769,4637.94871795,4764.61538462,4571.28205128,4609.23076923,4427.69230769,4400.51282051,1692.0,1662.0,23.459,0.0,0.0,0.0,0.0,mike,0
22.0,4812.82051282,4617.43589744,4664.61538462,4389.23076923,4583.58974359,4067.17948718,4662.05128205,4763.07692308,4629.74358974,4762.05128205,4569.74358974,4608.71794872,4422.56410256,4389.23076923,1694.0,1662.0,23.467,0.0,0.0,0.0,0.0,mike,0
23.0,4808.71794872,4609.74358974,4653.33333333,4382.05128205,4603.07692308,4066.15384615,4657.43589744,4766.15384615,4631.28205128,4765.12820513,4566.15384615,4601.02564103,4417.94871795,4382.56410256,1693.0,1661.0,23.474,0.0,0.0,0.0,0.0,mike,0
24.0,4809.23076923,4617.43589744,4646.15384615,4384.61538462,4617.43589744,4069.23076923,4655.8974359,4765.12820513,4632.82051282,4764.1025641,4568.71794872,4601.02564103,4420.51282051,4375.38461538,1694.0,1663.0,23.481,0.0,0.0,0.0,0.0,mike,0
25.0,4805.12820513,4624.1025641,4648.71794872,4386.66666667,4601.53846154,4067.17948718,4654.35897436,4754.35897436,4627.17948718,4754.87179487,4563.07692308,4599.48717949,4417.43589744,4371.28205128,1694.0,1661.0,23.49,0.0,0.0,0.0,0.0,mike,0
26.0,4799.48717949,4615.38461538,4646.15384615,4382.56410256,4571.79487179,4057.94871795,4646.66666667,4745.64102564,4618.46153846,4744.61538462,4550.76923077,4587.17948718,4406.66666667,4376.41025641,1694.0,1663.0,23.497,0.0,0.0,0.0,0.0,mike,0
27.0,4811.79487179,4615.38461538,4652.82051282,4388.20512821,4580.0,4063.07692308,4652.30769231,4755.8974359,4625.12820513,4753.33333333,4555.38461538,4592.82051282,4413.84615385,4385.12820513,1695.0,1662.0,23.506,0.0,0.0,0.0,0.0,mike,0
28.0,4831.28205128,4632.30769231,4671.28205128,4398.97435897,4617.94871795,4081.53846154,4670.25641026,4770.25641026,4641.02564103,4768.20512821,4571.28205128,4613.33333333,4430.25641026,4393.84615385,1695.0,1663.0,23.512,0.0,0.0,0.0,0.0,mike,0
29.0,4825.12820513,4637.43589744,4671.79487179,4401.53846154,4630.25641026,4082.05128205,4671.28205128,4769.23076923,4640.0,4767.17948718,4572.30769231,4616.92307692,4430.25641026,4395.8974359,1694.0,1664.0,23.521,0.0,0.0,0.0,0.0,mike,0
30.0,4809.23076923,4631.79487179,4658.46153846,4397.94871795,4613.84615385,4072.82051282,4662.56410256,4763.07692308,4630.25641026,4762.56410256,4564.61538462,4610.25641026,4420.51282051,4384.1025641,1694.0,1664.0,23.529,0.0,0.0,0.0,0.0,mike,0
31.0,4813.84615385,4633.33333333,4663.07692308,4396.92307692,4606.66666667,4073.84615385,4661.53846154,4764.61538462,4631.28205128,4765.64102564,4565.12820513,4611.79487179,4421.53846154,4378.46153846,1695.0,1663.0,23.537,0.0,0.0,0.0,0.0,mike,0
32.0,4818.97435897,4629.23076923,4669.23076923,4397.43589744,4607.69230769,4072.82051282,4660.51282051,4767.69230769,4634.35897436,4765.12820513,4566.15384615,4608.71794872,4423.58974359,4385.64102564,1693.0,1664.0,23.545,0.0,0.0,0.0,0.0,mike,0
33.0,4811.28205128,4617.94871795,4654.35897436,4393.33333333,4597.94871795,4063.07692308,4653.33333333,4765.12820513,4631.79487179,4760.51282051,4565.12820513,4602.05128205,4416.41025641,4385.12820513,1694.0,1665.0,23.553,0.0,0.0,0.0,0.0,mike,0
34.0,4806.66666667,4614.87179487,4646.66666667,4389.74358974,4585.12820513,4060.0,4651.79487179,4763.07692308,4631.79487179,4760.51282051,4570.25641026,4604.1025641,4416.41025641,4381.53846154,1693.0,1664.0,23.56,0.0,0.0,0.0,0.0,mike,0
35.0,4810.76923077,4617.43589744,4656.92307692,4389.74358974,4584.1025641,4066.66666667,4660.0,4767.17948718,4634.35897436,4763.58974359,4570.76923077,4604.61538462,4421.53846154,4386.66666667,1693.0,1664.0,23.567,0.0,0.0,0.0,0.0,mike,0
36.0,4809.74358974,4615.8974359,4659.48717949,4387.69230769,4597.94871795,4068.20512821,4660.0,4763.58974359,4630.76923077,4760.0,4561.02564103,4600.51282051,4416.41025641,4382.05128205,1694.0,1662.0,23.576,0.0,0.0,0.0,0.0,mike,0
37.0,4808.20512821,4616.41025641,4653.33333333,4387.69230769,4604.61538462,4064.61538462,4649.74358974,4751.79487179,4625.12820513,4754.35897436,4559.48717949,4601.53846154,4407.69230769,4370.25641026,1693.0,1663.0,23.583,0.0,0.0,0.0,0.0,mike,0
38.0,4809.74358974,4622.56410256,4658.46153846,4394.87179487,4604.61538462,4064.61538462,4648.71794872,4756.41025641,4628.71794872,4758.97435897,4567.17948718,4605.64102564,4416.41025641,4375.38461538,1694.0,1662.0,23.592,0.0,0.0,0.0,0.0,mike,0
39.0,4814.87179487,4628.20512821,4663.07692308,4397.94871795,4604.1025641,4069.23076923,4658.46153846,4768.71794872,4635.38461538,4768.71794872,4569.23076923,4602.56410256,4428.71794872,4385.64102564,1692.0,1662.0,23.598,0.0,0.0,0.0,0.0,mike,0
40.0,4816.92307692,4626.15384615,4655.38461538,4394.87179487,4591.79487179,4066.66666667,4656.92307692,4760.51282051,4633.84615385,4766.66666667,4567.17948718,4599.48717949,4426.15384615,4382.05128205,1693.0,1662.0,23.606,0.0,0.0,0.0,0.0,mike,0
41.0,4806.66666667,4619.48717949,4650.76923077,4392.30769231,4588.71794872,4062.05128205,4648.20512821,4748.71794872,4629.23076923,4762.05128205,4570.25641026,4600.0,4418.97435897,4382.56410256,1693.0,1662.0,23.614,0.0,0.0,0.0,0.0,mike,0
42.0,4793.84615385,4620.51282051,4650.76923077,4387.69230769,4598.97435897,4062.56410256,4647.17948718,4755.38461538,4632.30769231,4765.12820513,4567.69230769,4597.43589744,4416.92307692,4382.56410256,1693.0,1662.0,23.623,0.0,0.0,0.0,0.0,mike,0
43.0,4792.82051282,4621.02564103,4642.56410256,4386.15384615,4598.97435897,4061.53846154,4642.05128205,4754.35897436,4631.79487179,4761.02564103,4555.8974359,4586.66666667,4412.30769231,4364.1025641,1692.0,1662.0,23.631,0.0,0.0,0.0,0.0,mike,0
44.0,4797.43589744,4615.8974359,4637.94871795,4388.71794872,4592.82051282,4057.94871795,4637.43589744,4749.74358974,4629.23076923,4754.35897436,4557.94871795,4582.56410256,4411.79487179,4358.46153846,1693.0,1662.0,23.639,0.0,0.0,0.0,0.0,mike,0
45.0,4801.53846154,4613.33333333,4648.71794872,4385.64102564,4593.33333333,4058.46153846,4638.46153846,4758.97435897,4631.28205128,4754.87179487,4571.28205128,4590.76923077,4418.46153846,4375.8974359,1692.0,1662.0,23.646,0.0,0.0,0.0,0.0,mike,0
46.0,4796.92307692,4616.41025641,4647.69230769,4382.56410256,4601.02564103,4061.53846154,4636.41025641,4759.48717949,4627.17948718,4753.33333333,4569.23076923,4593.33333333,4416.92307692,4380.0,1693.0,1662.0,23.653,0.0,0.0,0.0,0.0,mike,0
47.0,4785.64102564,4616.92307692,4629.74358974,4383.07692308,4602.05128205,4058.46153846,4630.76923077,4746.66666667,4614.87179487,4747.69230769,4557.43589744,4583.07692308,4409.23076923,4365.12820513,1692.0,1662.0,23.662,0.0,0.0,0.0,0.0,mike,0
48.0,4785.64102564,4615.8974359,4632.30769231,4383.58974359,4587.69230769,4057.43589744,4631.79487179,4746.66666667,4616.92307692,4748.71794872,4561.53846154,4584.1025641,4411.28205128,4364.61538462,1693.0,1661.0,23.67,0.0,0.0,0.0,0.0,mike,0
49.0,4797.94871795,4617.43589744,4647.17948718,4383.58974359,4581.02564103,4060.0,4634.87179487,4755.38461538,4628.71794872,4753.33333333,4570.76923077,4593.33333333,4417.94871795,4380.51282051,1693.0,1661.0,23.678,0.0,0.0,0.0,0.0,mike,0
50.0,4800.0,4614.35897436,4643.07692308,4381.02564103,4592.82051282,4055.38461538,4630.76923077,4750.25641026,4621.02564103,4750.76923077,4566.15384615,4589.74358974,4414.35897436,4374.87179487,1693.0,1661.0,23.686,0.0,0.0,0.0,0.0,mike,0
51.0,4794.35897436,4614.35897436,4637.94871795,4383.58974359,4591.28205128,4053.84615385,4629.74358974,4746.66666667,4612.82051282,4747.17948718,4562.56410256,4587.17948718,4409.74358974,4355.8974359,1693.0,1660.0,23.693,0.0,0.0,0.0,0.0,mike,0
52.0,4797.43589744,4616.41025641,4648.20512821,4393.33333333,4582.05128205,4059.48717949,4633.33333333,4751.28205128,4623.07692308,4749.74358974,4562.05128205,4594.35897436,4413.33333333,4365.12820513,1694.0,1661.0,23.701,0.0,0.0,0.0,0.0,mike,0
53.0,4796.92307692,4615.8974359,4649.23076923,4391.28205128,4592.30769231,4058.97435897,4628.71794872,4750.76923077,4625.64102564,4752.82051282,4556.92307692,4593.33333333,4415.8974359,4385.12820513,1693.0,1661.0,23.708,0.0,0.0,0.0,0.0,mike,0
54.0,4788.71794872,4613.33333333,4635.38461538,4378.46153846,4589.23076923,4049.74358974,4617.94871795,4744.61538462,4614.87179487,4750.25641026,4556.92307692,4581.53846154,4411.28205128,4377.94871795,1695.0,1662.0,23.716,0.0,0.0,0.0,0.0,mike,0
55.0,4786.66666667,4613.84615385,4632.30769231,4380.0,4569.23076923,4046.66666667,4618.46153846,4743.07692308,4614.87179487,4747.17948718,4566.66666667,4585.12820513,4408.71794872,4366.66666667,1694.0,1660.0,23.725,0.0,0.0,0.0,0.0,mike,0
56.0,4794.87179487,4616.92307692,4644.61538462,4388.71794872,4583.07692308,4057.43589744,4630.25641026,4755.38461538,4626.15384615,4750.76923077,4569.23076923,4601.53846154,4415.8974359,4373.84615385,1694.0,1662.0,23.731,0.0,0.0,0.0,0.0,mike,0
57.0,4807.69230769,4616.92307692,4651.79487179,4386.66666667,4607.69230769,4061.53846154,4630.25641026,4764.1025641,4629.74358974,4755.8974359,4567.69230769,4603.58974359,4421.02564103,4380.0,1694.0,1661.0,23.739,0.0,0.0,0.0,0.0,mike,0
58.0,4810.25641026,4615.8974359,4648.71794872,4382.56410256,4589.74358974,4054.87179487,4623.07692308,4754.35897436,4625.64102564,4754.35897436,4569.23076923,4595.38461538,4416.41025641,4378.97435897,1693.0,1662.0,23.747,0.0,0.0,0.0,0.0,mike,0
59.0,4801.02564103,4616.41025641,4649.23076923,4385.64102564,4574.87179487,4053.84615385,4623.58974359,4752.30769231,4624.1025641,4750.25641026,4569.74358974,4598.46153846,4413.84615385,4381.02564103,1695.0,1662.0,23.755,0.0,0.0,0.0,0.0,mike,0
60.0,4796.41025641,4616.41025641,4649.74358974,4388.20512821,4597.94871795,4062.05128205,4626.15384615,4762.56410256,4625.64102564,4750.25641026,4567.69230769,4605.12820513,4415.38461538,4382.05128205,1694.0,1662.0,23.764,0.0,0.0,0.0,0.0,mike,0
61.0,4796.92307692,4615.8974359,4646.66666667,4384.1025641,4605.64102564,4062.05128205,4624.1025641,4763.07692308,4627.69230769,4752.82051282,4567.17948718,4599.48717949,4412.82051282,4381.53846154,1694.0,1662.0,23.772,0.0,0.0,0.0,0.0,mike,0
62.0,4797.94871795,4617.94871795,4648.71794872,4386.15384615,4585.64102564,4057.94871795,4610.76923077,4758.46153846,4629.23076923,4753.33333333,4568.71794872,4599.48717949,4415.38461538,4386.15384615,1693.0,1663.0,23.779,0.0,0.0,0.0,0.0,mike,0
63.0,4803.07692308,4617.94871795,4650.25641026,4392.30769231,4581.02564103,4060.0,4580.51282051,4756.41025641,4626.66666667,4751.28205128,4569.74358974,4602.05128205,4420.51282051,4385.64102564,1694.0,1663.0,23.787,0.0,0.0,0.0,0.0,mike,0
64.0,4804.61538462,4614.35897436,4646.66666667,4389.74358974,4587.17948718,4061.02564103,4551.79487179,4750.25641026,4618.46153846,4749.74358974,4566.15384615,4594.35897436,4414.35897436,4371.28205128,1694.0,1662.0,23.795,0.0,0.0,0.0,0.0,mike,0
65.0,4794.87179487,4615.8974359,4645.64102564,4387.17948718,4585.12820513,4059.48717949,4546.15384615,4746.66666667,4616.41025641,4748.20512821,4564.1025641,4591.28205128,4410.25641026,4360.51282051,1694.0,1663.0,23.803,0.0,0.0,0.0,0.0,mike,0
66.0,4794.87179487,4620.0,4650.25641026,4390.76923077,4593.84615385,4061.02564103,4544.1025641,4751.28205128,4620.51282051,4749.74358974,4567.17948718,4593.84615385,4414.87179487,4367.69230769,1694.0,1663.0,23.81,0.0,0.0,0.0,0.0,mike,0
67.0,4802.56410256,4617.94871795,4649.23076923,4387.69230769,4605.64102564,4061.53846154,4524.1025641,4750.76923077,4618.46153846,4750.76923077,4567.69230769,4592.82051282,4413.33333333,4376.92307692,1693.0,1664.0,23.817,0.0,0.0,0.0,0.0,mike,0
68.0,4796.92307692,4614.35897436,4644.1025641,4384.61538462,4592.30769231,4058.97435897,4504.61538462,4746.15384615,4614.35897436,4749.23076923,4566.15384615,4592.30769231,4413.33333333,4383.58974359,1695.0,1663.0,23.826,0.0,0.0,0.0,0.0,mike,0
69.0,4797.94871795,4619.48717949,4645.12820513,4394.35897436,4582.05128205,4060.0,4503.07692308,4749.23076923,4623.07692308,4756.41025641,4568.71794872,4596.92307692,4425.12820513,4391.28205128,1693.0,1663.0,23.834,0.0,0.0,0.0,0.0,mike,0
70.0,4810.25641026,4624.61538462,4650.25641026,4401.02564103,4603.07692308,4068.71794872,4509.74358974,4760.51282051,4633.33333333,4764.61538462,4573.84615385,4601.02564103,4431.79487179,4391.28205128,1694.0,1663.0,23.841,0.0,0.0,0.0,0.0,mike,0
71.0,4804.61538462,4620.0,4648.71794872,4394.87179487,4607.17948718,4070.25641026,4508.20512821,4767.17948718,4631.79487179,4758.97435897,4571.28205128,4598.46153846,4422.56410256,4381.53846154,1694.0,1663.0,23.849,0.0,0.0,0.0,0.0,mike,0
72.0,4794.35897436,4615.38461538,4646.66666667,4389.74358974,4582.56410256,4062.56410256,4503.58974359,4763.58974359,4627.69230769,4756.41025641,4569.23076923,4596.92307692,4417.94871795,4378.97435897,1694.0,1664.0,23.857,0.0,0.0,0.0,0.0,mike,0
73.0,4801.53846154,4616.41025641,4653.84615385,4391.79487179,4588.71794872,4062.56410256,4508.20512821,4767.17948718,4633.84615385,4766.66666667,4577.43589744,4604.1025641,4427.17948718,4383.58974359,1694.0,1663.0,23.865,0.0,0.0,0.0,0.0,mike,0
74.0,4805.12820513,4617.94871795,4653.84615385,4387.69230769,4606.15384615,4064.1025641,4507.17948718,4767.69230769,4633.84615385,4765.64102564,4581.02564103,4609.23076923,4428.71794872,4382.56410256,1694.0,1663.0,23.872,0.0,0.0,0.0,0.0,mike,0
75.0,4796.41025641,4614.87179487,4645.64102564,4382.56410256,4586.66666667,4056.92307692,4495.8974359,4752.30769231,4621.02564103,4754.87179487,4572.30769231,4601.02564103,4422.56410256,4386.15384615,1694.0,1663.0,23.88,0.0,0.0,0.0,0.0,mike,0
76.0,4797.43589744,4615.38461538,4649.74358974,4391.28205128,4576.41025641,4057.94871795,4501.02564103,4748.71794872,4621.53846154,4758.97435897,4570.25641026,4596.41025641,4424.61538462,4397.43589744,1694.0,1663.0,23.888,0.0,0.0,0.0,0.0,mike,0
77.0,4805.64102564,4620.51282051,4660.51282051,4402.56410256,4602.56410256,4069.23076923,4511.28205128,4758.46153846,4630.25641026,4765.64102564,4574.87179487,4605.12820513,4429.74358974,4393.84615385,1694.0,1662.0,23.897,0.0,0.0,0.0,0.0,mike,0
78.0,4795.38461538,4613.84615385,4649.74358974,4393.84615385,4595.8974359,4058.97435897,4498.46153846,4745.64102564,4615.8974359,4750.25641026,4567.17948718,4597.43589744,4414.35897436,4373.33333333,1692.0,1663.0,23.903,0.0,0.0,0.0,0.0,mike,0
79.0,4777.43589744,4598.46153846,4629.74358974,4377.43589744,4561.02564103,4042.05128205,4482.56410256,4723.07692308,4592.30769231,4727.17948718,4552.30769231,4573.33333333,4389.23076923,4354.87179487,1695.0,1662.0,23.911,0.0,0.0,0.0,0.0,mike,0
80.0,4781.53846154,4594.87179487,4631.79487179,4375.8974359,4574.35897436,4051.79487179,4492.30769231,4727.17948718,4595.8974359,4725.12820513,4547.69230769,4569.74358974,4383.58974359,4351.28205128,1694.0,1662.0,23.92,0.0,0.0,0.0,0.0,mike,0
81.0,4796.92307692,4607.69230769,4649.23076923,4387.17948718,4600.51282051,4065.64102564,4507.69230769,4750.25641026,4617.94871795,4742.56410256,4556.41025641,4591.79487179,4400.51282051,4367.17948718,1694.0,1663.0,23.928,0.0,0.0,0.0,0.0,mike,0
82.0,4798.97435897,4619.48717949,4656.41025641,4394.35897436,4588.71794872,4061.53846154,4508.71794872,4763.58974359,4631.28205128,4757.94871795,4568.20512821,4604.61538462,4414.87179487,4383.58974359,1694.0,1662.0,23.936,0.0,0.0,0.0,0.0,mike,0
83.0,4798.46153846,4618.46153846,4654.87179487,4391.79487179,4578.97435897,4057.94871795,4509.23076923,4766.15384615,4634.35897436,4762.56410256,4572.82051282,4599.48717949,4416.41025641,4382.56410256,1694.0,1663.0,23.944,0.0,0.0,0.0,0.0,mike,0
84.0,4802.56410256,4614.87179487,4658.97435897,4391.79487179,4593.33333333,4064.1025641,4514.35897436,4771.28205128,4634.87179487,4764.1025641,4578.46153846,4601.02564103,4421.02564103,4386.15384615,1694.0,1662.0,23.951,0.0,0.0,0.0,0.0,mike,0
85.0,4802.05128205,4616.92307692,4662.05128205,4391.79487179,4588.71794872,4061.53846154,4512.82051282,4775.38461538,4635.38461538,4766.66666667,4579.48717949,4607.17948718,4424.61538462,4394.87179487,1694.0,1663.0,23.959,0.0,0.0,0.0,0.0,mike,0
86.0,4797.94871795,4614.87179487,4655.8974359,4388.20512821,4571.28205128,4052.30769231,4507.17948718,4772.30769231,4633.84615385,4764.1025641,4572.82051282,4606.15384615,4418.46153846,4383.58974359,1694.0,1662.0,23.967,0.0,0.0,0.0,0.0,mike,0
87.0,4798.46153846,4608.71794872,4649.23076923,4391.79487179,4581.53846154,4052.30769231,4506.15384615,4763.07692308,4630.76923077,4756.92307692,4567.69230769,4599.48717949,4411.79487179,4367.69230769,1694.0,1661.0,23.974,0.0,0.0,0.0,0.0,mike,0
88.0,4803.07692308,4614.87179487,4650.25641026,4398.97435897,4601.53846154,4061.02564103,4508.71794872,4757.94871795,4627.17948718,4760.0,4571.79487179,4600.51282051,4414.35897436,4376.92307692,1695.0,1659.0,23.982,0.0,0.0,0.0,0.0,mike,0
89.0,4794.87179487,4621.02564103,4648.71794872,4393.33333333,4595.38461538,4061.53846154,4505.12820513,4753.33333333,4622.56410256,4763.07692308,4575.38461538,4601.53846154,4416.41025641,4386.66666667,1694.0,1660.0,23.99,0.0,0.0,0.0,0.0,mike,0
90.0,4779.48717949,4612.30769231,4636.41025641,4379.48717949,4582.05128205,4049.74358974,4493.33333333,4744.1025641,4614.35897436,4754.87179487,4567.69230769,4590.76923077,4411.28205128,4373.84615385,1696.0,1660.0,23.998,0.0,0.0,0.0,0.0,mike,0
91.0,4784.61538462,4609.23076923,4635.8974359,4381.02564103,4581.53846154,4045.12820513,4492.30769231,4747.69230769,4614.35897436,4755.8974359,4566.66666667,4587.69230769,4411.79487179,4371.28205128,1693.0,1660.0,24.006,0.0,0.0,0.0,0.0,mike,0
92.0,4802.56410256,4617.94871795,4651.28205128,4392.82051282,4578.97435897,4051.28205128,4507.17948718,4765.64102564,4630.76923077,4768.71794872,4577.43589744,4597.43589744,4417.94871795,4385.12820513,1694.0,1662.0,24.013,0.0,0.0,0.0,0.0,mike,0
93.0,4799.48717949,4619.48717949,4650.76923077,4393.84615385,4581.53846154,4054.35897436,4512.30769231,4768.20512821,4635.38461538,4770.25641026,4579.48717949,4597.94871795,4416.41025641,4376.92307692,1693.0,1661.0,24.021,0.0,0.0,0.0,0.0,mike,0
94.0,4785.12820513,4611.79487179,4634.35897436,4387.17948718,4590.25641026,4051.28205128,4503.58974359,4750.25641026,4620.0,4760.51282051,4569.74358974,4585.64102564,4409.74358974,4356.92307692,1693.0,1662.0,24.029,0.0,0.0,0.0,0.0,mike,0
95.0,4782.56410256,4611.28205128,4633.84615385,4386.15384615,4588.20512821,4054.87179487,4504.1025641,4746.15384615,4617.94871795,4760.51282051,4564.1025641,4581.02564103,4408.71794872,4367.17948718,1692.0,1661.0,24.037,0.0,0.0,0.0,0.0,mike,0
96.0,4784.61538462,4613.84615385,4643.58974359,4384.1025641,4586.15384615,4060.51282051,4510.76923077,4756.92307692,4626.66666667,4763.58974359,4564.1025641,4584.1025641,4407.17948718,4379.48717949,1692.0,1662.0,24.044,0.0,0.0,0.0,0.0,mike,0
97.0,4782.56410256,4607.69230769,4640.0,4381.53846154,4585.12820513,4055.38461538,4504.61538462,4754.87179487,4622.05128205,4755.8974359,4563.58974359,4584.61538462,4398.46153846,4367.69230769,1692.0,1662.0,24.053,0.0,0.0,0.0,0.0,mike,0
98.0,4781.53846154,4598.97435897,4631.79487179,4381.53846154,4568.71794872,4045.64102564,4496.92307692,4746.66666667,4612.82051282,4745.12820513,4563.58974359,4582.56410256,4395.8974359,4359.48717949,1692.0,1663.0,24.061,0.0,0.0,0.0,0.0,mike,0
99.0,4783.07692308,4597.94871795,4634.87179487,4378.97435897,4551.79487179,4041.02564103,4500.0,4750.76923077,4615.8974359,4749.74358974,4565.64102564,4583.07692308,4404.61538462,4367.17948718,1692.0,1663.0,24.068,0.0,0.0,0.0,0.0,mike,0
100.0,4781.53846154,4603.58974359,4642.56410256,4378.46153846,4567.69230769,4045.12820513,4506.15384615,4758.46153846,4623.58974359,4762.56410256,4571.28205128,4594.35897436,4413.84615385,4377.43589744,1692.0,1663.0,24.076,0.0,0.0,0.0,0.0,mike,0
101.0,4782.56410256,4608.71794872,4645.12820513,4383.58974359,4591.79487179,4056.41025641,4506.66666667,4757.43589744,4622.56410256,4764.61538462,4574.35897436,4604.1025641,4417.94871795,4380.51282051,1693.0,1663.0,24.083,0.0,0.0,0.0,0.0,mike,0
102.0,4791.79487179,4610.25641026,4646.66666667,4385.12820513,4592.82051282,4058.97435897,4505.12820513,4749.74358974,4617.43589744,4762.05128205,4569.74358974,4600.51282051,4418.46153846,4381.53846154,1693.0,1663.0,24.091,0.0,0.0,0.0,0.0,mike,0
103.0,4797.94871795,4612.30769231,4648.71794872,4383.58974359,4585.12820513,4051.28205128,4506.66666667,4751.28205128,4616.92307692,4764.1025641,4569.23076923,4598.46153846,4416.92307692,4382.56410256,1693.0,1662.0,24.1,0.0,0.0,0.0,0.0,mike,0
104.0,4797.43589744,4611.28205128,4649.74358974,4384.61538462,4576.92307692,4053.84615385,4513.33333333,4761.53846154,4623.58974359,4766.66666667,4572.82051282,4599.48717949,4415.8974359,4381.02564103,1694.0,1663.0,24.108,0.0,0.0,0.0,0.0,mike,0
105.0,4794.35897436,4604.61538462,4647.17948718,4382.05128205,4570.76923077,4062.05128205,4528.20512821,4761.53846154,4626.66666667,4766.15384615,4570.25641026,4592.30769231,4417.94871795,4381.53846154,1694.0,1663.0,24.116,0.0,0.0,0.0,0.0,mike,0
106.0,4793.33333333,4602.56410256,4645.64102564,4382.56410256,4585.64102564,4060.0,4555.8974359,4750.25641026,4625.12820513,4765.64102564,4568.71794872,4589.23076923,4416.92307692,4380.51282051,1694.0,1663.0,24.123,0.0,0.0,0.0,0.0,mike,0
107.0,4796.41025641,4611.79487179,4649.23076923,4391.79487179,4610.25641026,4060.51282051,4591.79487179,4752.82051282,4625.64102564,4765.64102564,4571.28205128,4600.51282051,4413.33333333,4368.71794872,1695.0,1662.0,24.13,0.0,0.0,0.0,0.0,mike,0
108.0,4798.97435897,4616.92307692,4647.69230769,4393.84615385,4608.20512821,4068.20512821,4614.87179487,4762.05128205,4625.64102564,4766.15384615,4570.76923077,4598.46153846,4413.84615385,4363.07692308,1694.0,1662.0,24.138,0.0,0.0,0.0,0.0,mike,0
109.0,4796.41025641,4617.94871795,4643.07692308,4390.76923077,4594.35897436,4068.71794872,4622.56410256,4762.05128205,4628.71794872,4768.71794872,4571.79487179,4588.71794872,4418.46153846,4382.56410256,1696.0,1662.0,24.146,0.0,0.0,0.0,0.0,mike,0
110.0,4797.43589744,4622.56410256,4648.20512821,4396.92307692,4603.07692308,4065.12820513,4625.64102564,4761.53846154,4631.28205128,4768.71794872,4578.97435897,4596.41025641,4419.48717949,4393.33333333,1694.0,1662.0,24.155,0.0,0.0,0.0,0.0,mike,0
111.0,4797.43589744,4616.41025641,4651.28205128,4397.43589744,4606.66666667,4062.56410256,4627.69230769,4758.46153846,4624.1025641,4765.64102564,4576.41025641,4602.56410256,4414.35897436,4381.02564103,1696.0,1662.0,24.161,0.0,0.0,0.0,0.0,mike,0
112.0,4794.35897436,4604.1025641,4645.12820513,4385.64102564,4591.28205128,4061.02564103,4638.46153846,4751.28205128,4615.38461538,4762.05128205,4568.20512821,4591.79487179,4412.30769231,4377.43589744,1695.0,1661.0,24.169,0.0,0.0,0.0,0.0,mike,0
113.0,4796.92307692,4605.64102564,4645.64102564,4385.12820513,4589.23076923,4064.1025641,4659.48717949,4748.71794872,4615.8974359,4763.07692308,4569.74358974,4590.25641026,4411.28205128,4385.64102564,1695.0,1661.0,24.178,0.0,0.0,0.0,0.0,mike,0
114.0,4798.46153846,4613.84615385,4649.74358974,4393.84615385,4605.64102564,4070.25641026,4672.30769231,4748.71794872,4619.48717949,4763.58974359,4572.82051282,4602.56410256,4409.74358974,4379.48717949,1695.0,1660.0,24.186,0.0,0.0,0.0,0.0,mike,0
115.0,4802.05128205,4617.94871795,4647.69230769,4393.33333333,4615.38461538,4074.87179487,4675.38461538,4755.8974359,4622.56410256,4764.1025641,4576.92307692,4604.1025641,4417.43589744,4377.94871795,1695.0,1661.0,24.193,0.0,0.0,0.0,0.0,mike,0
116.0,4811.28205128,4619.48717949,4652.30769231,4394.87179487,4606.66666667,4078.97435897,4679.48717949,4765.64102564,4630.25641026,4773.33333333,4586.15384615,4601.02564103,4431.79487179,4394.87179487,1695.0,1661.0,24.202,0.0,0.0,0.0,0.0,mike,0
117.0,4806.15384615,4616.41025641,4654.87179487,4400.51282051,4592.82051282,4074.87179487,4674.87179487,4759.48717949,4629.74358974,4776.92307692,4583.58974359,4601.02564103,4426.66666667,4395.8974359,1694.0,1662.0,24.209,0.0,0.0,0.0,0.0,mike,0
118.0,4792.30769231,4608.71794872,4646.15384615,4394.35897436,4591.28205128,4062.05128205,4662.05128205,4744.61538462,4617.94871795,4768.20512821,4567.17948718,4593.33333333,4410.76923077,4369.74358974,1695.0,1662.0,24.216,0.0,0.0,0.0,0.0,mike,0
119.0,4795.38461538,4611.79487179,4643.07692308,4387.69230769,4600.0,4056.92307692,4655.38461538,4747.69230769,4618.97435897,4767.69230769,4568.71794872,4594.35897436,4416.92307692,4367.69230769,1694.0,1662.0,24.225,0.0,0.0,0.0,0.0,mike,0
120.0,4802.56410256,4618.46153846,4650.76923077,4392.30769231,4606.15384615,4065.12820513,4655.8974359,4752.30769231,4627.17948718,4774.35897436,4582.05128205,4602.05128205,4426.15384615,4391.79487179,1694.0,1661.0,24.232,0.0,0.0,0.0,0.0,mike,0
121.0,4794.87179487,4612.30769231,4647.17948718,4395.8974359,4604.61538462,4068.71794872,4651.28205128,4745.12820513,4619.48717949,4767.69230769,4574.87179487,4593.33333333,4413.84615385,4381.53846154,1692.0,1661.0,24.24,0.0,0.0,0.0,0.0,mike,0
122.0,4793.33333333,4605.64102564,4640.51282051,4390.25641026,4601.02564103,4060.0,4645.64102564,4740.51282051,4608.20512821,4761.02564103,4563.58974359,4584.61538462,4403.58974359,4358.46153846,1693.0,1662.0,24.249,0.0,0.0,0.0,0.0,mike,0
123.0,4800.0,4615.38461538,4649.23076923,4387.17948718,4600.0,4062.56410256,4649.74358974,4750.25641026,4618.46153846,4767.17948718,4577.94871795,4596.92307692,4416.92307692,4378.97435897,1693.0,1662.0,24.255,0.0,0.0,0.0,0.0,mike,0
124.0,4798.97435897,4620.0,4656.92307692,4390.76923077,4602.56410256,4069.23076923,4652.30769231,4762.05128205,4630.76923077,4771.79487179,4590.76923077,4605.64102564,4427.69230769,4403.07692308,1693.0,1662.0,24.263,0.0,0.0,0.0,0.0,mike,0
125.0,4802.05128205,4614.35897436,4656.41025641,4396.92307692,4604.1025641,4065.12820513,4649.74358974,4765.64102564,4629.74358974,4776.41025641,4584.61538462,4603.58974359,4425.12820513,4394.87179487,1693.0,1661.0,24.271,0.0,0.0,0.0,0.0,mike,0
126.0,4813.33333333,4616.92307692,4660.51282051,4400.51282051,4601.53846154,4063.58974359,4651.28205128,4773.84615385,4637.94871795,4783.58974359,4589.74358974,4612.30769231,4433.84615385,4388.20512821,1693.0,1661.0,24.279,0.0,0.0,0.0,0.0,mike,0
127.0,4814.87179487,4623.07692308,4667.17948718,4396.41025641,4601.53846154,4066.66666667,4650.76923077,4780.51282051,4646.66666667,4785.12820513,4602.05128205,4621.53846154,4445.12820513,4395.38461538,1693.0,1661.0,24.287,0.0,0.0,0.0,0.0,mike,0
128.0,4808.71794872,4618.97435897,4665.64102564,4394.35897436,4604.61538462,4068.20512821,4648.71794872,4772.82051282,4641.53846154,4785.12820513,4593.84615385,4621.02564103,4440.51282051,4397.43589744,1694.0,1661.0,24.295,0.0,0.0,0.0,0.0,mike,0
0.0,4809.23076923,4609.74358974,4659.48717949,4396.41025641,4604.1025641,4067.17948718,4649.23076923,4760.51282051,4629.23076923,4781.53846154,4582.05128205,4615.38461538,4428.20512821,4393.84615385,1694.0,1661.0,24.303,0.0,0.0,0.0,0.0,mike,0
1.0,4811.28205128,4604.61538462,4653.84615385,4388.20512821,4595.8974359,4060.51282051,4641.02564103,4750.76923077,4622.05128205,4774.35897436,4584.1025641,4604.61538462,4421.53846154,4388.71794872,1693.0,1662.0,24.31,0.0,0.0,0.0,0.0,mike,0
2.0,4802.56410256,4604.1025641,4644.1025641,4378.46153846,4581.02564103,4054.35897436,4630.76923077,4750.76923077,4622.05128205,4772.82051282,4584.61538462,4597.43589744,4420.0,4386.66666667,1694.0,1661.0,24.318,0.0,0.0,0.0,0.0,mike,0
3.0,4789.23076923,4602.05128205,4637.94871795,4381.53846154,4573.84615385,4057.94871795,4636.41025641,4756.92307692,4626.66666667,4773.33333333,4578.46153846,4600.51282051,4417.94871795,4385.64102564,1694.0,1661.0,24.326,0.0,0.0,0.0,0.0,mike,0
4.0,4786.15384615,4602.56410256,4637.94871795,4387.17948718,4590.76923077,4061.53846154,4643.58974359,4760.51282051,4629.74358974,4771.79487179,4578.97435897,4602.05128205,4419.48717949,4379.48717949,1695.0,1662.0,24.334,0.0,0.0,0.0,0.0,mike,0
5.0,4795.38461538,4614.35897436,4643.58974359,4387.17948718,4610.76923077,4064.1025641,4641.53846154,4761.02564103,4629.74358974,4776.41025641,4585.12820513,4598.97435897,4425.64102564,4383.07692308,1695.0,1661.0,24.342,0.0,0.0,0.0,0.0,mike,0
6.0,4800.0,4620.51282051,4647.69230769,4386.66666667,4602.05128205,4066.15384615,4640.51282051,4766.15384615,4632.82051282,4781.53846154,4587.69230769,4602.56410256,4429.23076923,4394.87179487,1695.0,1663.0,24.35,0.0,0.0,0.0,0.0,mike,0
7.0,4795.8974359,4607.69230769,4648.71794872,4386.15384615,4592.82051282,4062.05128205,4641.02564103,4767.69230769,4633.33333333,4780.51282051,4588.20512821,4611.79487179,4429.23076923,4395.38461538,1697.0,1662.0,24.358,0.0,0.0,0.0,0.0,mike,0
8.0,4801.02564103,4605.12820513,4656.41025641,4390.76923077,4602.05128205,4061.02564103,4638.46153846,4767.69230769,4633.33333333,4783.07692308,4589.74358974,4618.97435897,4433.84615385,4393.84615385,1695.0,1662.0,24.365,0.0,0.0,0.0,0.0,mike,0
9.0,4811.79487179,4616.41025641,4661.02564103,4393.33333333,4591.79487179,4060.51282051,4630.25641026,4765.12820513,4632.30769231,4779.48717949,4588.20512821,4615.8974359,4432.82051282,4396.41025641,1696.0,1663.0,24.373,0.0,0.0,0.0,0.0,mike,0
10.0,4812.82051282,4618.46153846,4657.94871795,4390.25641026,4585.64102564,4058.97435897,4629.74358974,4756.41025641,4626.15384615,4768.20512821,4583.58974359,4608.71794872,4421.53846154,4395.38461538,1695.0,1663.0,24.381,0.0,0.0,0.0,0.0,mike,0
11.0,4811.79487179,4620.0,4664.1025641,4393.84615385,4612.82051282,4072.30769231,4648.71794872,4761.53846154,4628.71794872,4773.84615385,4583.58974359,4613.33333333,4423.58974359,4395.38461538,1696.0,1663.0,24.388,0.0,0.0,0.0,0.0,mike,0
12.0,4814.35897436,4624.1025641,4671.79487179,4400.0,4613.84615385,4082.05128205,4661.53846154,4770.76923077,4635.38461538,4785.12820513,4585.64102564,4620.51282051,4432.82051282,4398.97435897,1694.0,1663.0,24.397,0.0,0.0,0.0,0.0,mike,0
13.0,4816.41025641,4618.97435897,4667.69230769,4396.41025641,4594.87179487,4074.87179487,4650.25641026,4765.12820513,4631.28205128,4782.05128205,4586.15384615,4615.38461538,4428.20512821,4394.35897436,1695.0,1664.0,24.405,0.0,0.0,0.0,0.0,mike,0
14.0,4816.92307692,4614.87179487,4664.61538462,4393.33333333,4608.20512821,4071.79487179,4644.1025641,4762.05128205,4629.74358974,4778.46153846,4584.61538462,4610.76923077,4424.1025641,4386.66666667,1694.0,1663.0,24.412,0.0,0.0,0.0,0.0,mike,0
15.0,4810.25641026,4618.46153846,4664.61538462,4393.84615385,4621.53846154,4077.94871795,4655.8974359,4768.20512821,4635.38461538,4782.56410256,4585.64102564,4615.8974359,4428.20512821,4389.74358974,1695.0,1664.0,24.421,0.0,0.0,0.0,0.0,mike,0
16.0,4801.53846154,4614.35897436,4658.97435897,4387.69230769,4601.02564103,4076.41025641,4658.46153846,4767.69230769,4634.35897436,4782.05128205,4586.15384615,4617.43589744,4429.74358974,4391.28205128,1695.0,1663.0,24.427,0.0,0.0,0.0,0.0,mike,0
17.0,4798.97435897,4612.30769231,4655.38461538,4385.12820513,4589.23076923,4072.82051282,4648.20512821,4761.53846154,4628.71794872,4778.46153846,4583.58974359,4612.30769231,4427.17948718,4386.66666667,1694.0,1664.0,24.436,0.0,0.0,0.0,0.0,mike,0
