COUNTER,AF3,F7,F3,FC5,T7,P7,O1,O2,P8,T8,FC6,F4,F8,AF4,GYROX,GYROY,TIMESTAMP,FUNC_ID,FUNC_VALUE,MARKER,SYNC_SIGNAL,USER,CLASS
87.0,4844.1025641,4751.79487179,4699.48717949,4435.8974359,4664.61538462,4120.51282051,4677.43589744,4762.56410256,4669.74358974,4812.30769231,4476.41025641,4630.25641026,4448.20512821,4351.79487179,1699.0,1664.0,10.099,0.0,0.0,0.0,0.0,mike,0
88.0,4832.30769231,4740.51282051,4689.23076923,4429.23076923,4678.97435897,4122.05128205,4674.35897436,4760.51282051,4666.15384615,4804.1025641,4467.69230769,4622.56410256,4437.43589744,4340.0,1699.0,1664.0,10.107,0.0,0.0,0.0,0.0,mike,0
89.0,4816.92307692,4723.07692308,4675.8974359,4423.07692308,4666.15384615,4116.92307692,4665.64102564,4753.84615385,4659.48717949,4792.82051282,4456.41025641,4612.30769231,4424.61538462,4319.48717949,1700.0,1663.0,10.115,0.0,0.0,0.0,0.0,mike,0
90.0,4822.56410256,4728.71794872,4681.02564103,4424.61538462,4651.79487179,4118.46153846,4670.76923077,4759.48717949,4665.12820513,4802.05128205,4462.05128205,4616.41025641,4430.76923077,4326.15384615,1699.0,1663.0,10.123,0.0,0.0,0.0,0.0,mike,0
91.0,4834.87179487,4746.66666667,4691.28205128,4430.76923077,4669.23076923,4123.07692308,4683.58974359,4770.76923077,4678.97435897,4816.92307692,4479.48717949,4626.66666667,4447.69230769,4347.17948718,1700.0,1663.0,10.131,0.0,0.0,0.0,0.0,mike,0
92.0,4830.76923077,4747.17948718,4687.17948718,4431.79487179,4677.43589744,4123.58974359,4684.1025641,4771.79487179,4678.97435897,4811.28205128,4478.97435897,4624.61538462,4445.64102564,4343.07692308,1700.0,1662.0,10.139,0.0,0.0,0.0,0.0,mike,0
93.0,4820.51282051,4733.33333333,4681.53846154,4430.25641026,4655.8974359,4122.05128205,4673.84615385,4763.58974359,4668.20512821,4799.48717949,4465.12820513,4613.33333333,4430.76923077,4325.12820513,1700.0,1663.0,10.146,0.0,0.0,0.0,0.0,mike,0
94.0,4813.33333333,4727.17948718,4678.97435897,4425.12820513,4649.74358974,4114.87179487,4665.64102564,4752.82051282,4656.92307692,4793.33333333,4455.38461538,4604.1025641,4423.58974359,4316.41025641,1700.0,1662.0,10.154,0.0,0.0,0.0,0.0,mike,0
95.0,4811.79487179,4731.28205128,4675.38461538,4420.51282051,4664.61538462,4107.17948718,4662.05128205,4745.12820513,4650.76923077,4784.1025641,4449.23076923,4600.51282051,4420.0,4315.8974359,1700.0,1662.0,10.162,0.0,0.0,0.0,0.0,mike,0
96.0,4812.82051282,4733.33333333,4675.38461538,4422.05128205,4668.20512821,4107.17948718,4661.02564103,4746.15384615,4652.30769231,4780.51282051,4449.23076923,4600.51282051,4415.8974359,4317.43589744,1700.0,1661.0,10.17,0.0,0.0,0.0,0.0,mike,0
97.0,4810.76923077,4728.20512821,4673.84615385,4426.15384615,4654.87179487,4110.25641026,4662.56410256,4747.69230769,4654.35897436,4789.74358974,4453.84615385,4600.51282051,4418.46153846,4312.30769231,1700.0,1662.0,10.178,0.0,0.0,0.0,0.0,mike,0
98.0,4810.25641026,4726.66666667,4673.33333333,4428.20512821,4653.33333333,4112.82051282,4663.58974359,4747.69230769,4652.82051282,4796.92307692,4459.48717949,4599.48717949,4424.1025641,4307.17948718,1701.0,1661.0,10.185,0.0,0.0,0.0,0.0,mike,0
99.0,4813.33333333,4732.82051282,4678.97435897,4430.25641026,4658.46153846,4117.94871795,4664.61538462,4753.84615385,4657.43589744,4794.87179487,4456.92307692,4602.05128205,4425.12820513,4312.82051282,1700.0,1662.0,10.193,0.0,0.0,0.0,0.0,mike,0
100.0,4817.94871795,4737.43589744,4683.58974359,4430.76923077,4656.92307692,4121.53846154,4669.23076923,4762.56410256,4664.1025641,4794.35897436,4441.53846154,4610.76923077,4427.69230769,4318.97435897,1702.0,1661.0,10.201,0.0,0.0,0.0,0.0,mike,0
101.0,4825.64102564,4734.87179487,4685.12820513,4431.28205128,4663.07692308,4120.51282051,4674.35897436,4765.12820513,4664.61538462,4798.97435897,4432.82051282,4616.92307692,4430.25641026,4320.0,1700.0,1661.0,10.209,0.0,0.0,0.0,0.0,mike,0
102.0,4828.20512821,4734.35897436,4686.66666667,4433.84615385,4673.33333333,4121.53846154,4670.25641026,4762.05128205,4662.56410256,4798.97435897,4442.56410256,4617.94871795,4429.23076923,4328.71794872,1701.0,1662.0,10.217,0.0,0.0,0.0,0.0,mike,0
103.0,4823.58974359,4734.87179487,4692.30769231,4430.76923077,4671.28205128,4121.02564103,4662.56410256,4762.05128205,4662.05128205,4795.8974359,4449.23076923,4619.48717949,4435.38461538,4339.48717949,1701.0,1661.0,10.225,0.0,0.0,0.0,0.0,mike,0
104.0,4828.20512821,4735.38461538,4695.8974359,4431.28205128,4662.05128205,4119.48717949,4669.23076923,4765.64102564,4667.17948718,4801.53846154,4443.58974359,4628.71794872,4444.61538462,4343.07692308,1701.0,1662.0,10.232,0.0,0.0,0.0,0.0,mike,0
105.0,4840.0,4737.43589744,4700.0,4441.02564103,4661.53846154,4129.74358974,4683.58974359,4767.69230769,4673.33333333,4814.87179487,4446.15384615,4635.8974359,4445.64102564,4344.1025641,1700.0,1661.0,10.24,0.0,0.0,0.0,0.0,mike,0
106.0,4837.43589744,4735.38461538,4698.46153846,4439.48717949,4665.64102564,4136.41025641,4683.58974359,4767.17948718,4668.71794872,4812.82051282,4449.74358974,4628.71794872,4443.07692308,4338.97435897,1700.0,1661.0,10.248,0.0,0.0,0.0,0.0,mike,0
107.0,4824.1025641,4729.74358974,4689.23076923,4429.23076923,4665.12820513,4125.64102564,4673.33333333,4762.56410256,4659.48717949,4796.41025641,4444.61538462,4616.41025641,4437.94871795,4328.20512821,1701.0,1661.0,10.256,0.0,0.0,0.0,0.0,mike,0
108.0,4824.1025641,4731.28205128,4685.12820513,4431.79487179,4663.58974359,4120.0,4673.84615385,4763.07692308,4663.58974359,4798.46153846,4443.58974359,4618.97435897,4434.87179487,4327.69230769,1701.0,1662.0,10.264,0.0,0.0,0.0,0.0,mike,0
109.0,4832.30769231,4734.35897436,4692.82051282,4437.94871795,4666.15384615,4124.1025641,4676.41025641,4771.28205128,4672.82051282,4813.33333333,4446.15384615,4627.69230769,4440.51282051,4337.43589744,1701.0,1661.0,10.271,0.0,0.0,0.0,0.0,mike,0
110.0,4828.71794872,4729.23076923,4696.92307692,4432.30769231,4668.71794872,4120.0,4668.20512821,4772.82051282,4671.79487179,4811.79487179,4446.15384615,4623.07692308,4441.53846154,4337.94871795,1701.0,1662.0,10.279,0.0,0.0,0.0,0.0,mike,0
111.0,4823.07692308,4722.05128205,4689.23076923,4426.15384615,4665.12820513,4118.46153846,4666.66666667,4768.71794872,4667.69230769,4800.0,4446.15384615,4616.41025641,4431.28205128,4330.25641026,1702.0,1662.0,10.287,0.0,0.0,0.0,0.0,mike,0
112.0,4828.71794872,4720.51282051,4687.17948718,4429.23076923,4662.56410256,4124.61538462,4673.33333333,4766.66666667,4665.12820513,4797.43589744,4440.51282051,4615.8974359,4424.61538462,4324.1025641,1700.0,1662.0,10.295,0.0,0.0,0.0,0.0,mike,0
113.0,4831.28205128,4722.05128205,4689.23076923,4432.30769231,4665.64102564,4122.56410256,4673.33333333,4764.1025641,4658.46153846,4797.43589744,4430.25641026,4613.84615385,4425.64102564,4321.02564103,1701.0,1663.0,10.303,0.0,0.0,0.0,0.0,mike,0
114.0,4827.17948718,4726.15384615,4688.71794872,4430.25641026,4668.20512821,4120.51282051,4672.30769231,4761.53846154,4654.87179487,4796.41025641,4434.35897436,4611.28205128,4425.12820513,4325.12820513,1701.0,1661.0,10.311,0.0,0.0,0.0,0.0,mike,0
115.0,4828.71794872,4726.15384615,4689.23076923,4429.74358974,4662.56410256,4124.1025641,4676.41025641,4766.15384615,4661.53846154,4798.97435897,4443.58974359,4617.43589744,4428.20512821,4328.71794872,1700.0,1663.0,10.318,0.0,0.0,0.0,0.0,mike,0
116.0,4824.61538462,4719.48717949,4686.66666667,4428.20512821,4653.84615385,4118.97435897,4668.20512821,4762.05128205,4657.94871795,4797.43589744,4433.84615385,4617.43589744,4429.23076923,4318.97435897,1701.0,1662.0,10.326,0.0,0.0,0.0,0.0,mike,0
117.0,4814.87179487,4718.46153846,4680.0,4427.17948718,4653.33333333,4113.84615385,4657.43589744,4750.25641026,4647.69230769,4794.87179487,4420.51282051,4605.64102564,4422.05128205,4316.41025641,1701.0,1663.0,10.334,0.0,0.0,0.0,0.0,mike,0
118.0,4813.33333333,4717.94871795,4674.35897436,4424.61538462,4657.94871795,4111.28205128,4657.94871795,4746.15384615,4647.17948718,4795.38461538,4422.56410256,4598.46153846,4413.33333333,4322.56410256,1701.0,1662.0,10.342,0.0,0.0,0.0,0.0,mike,0
119.0,4814.87179487,4710.25641026,4669.74358974,4417.43589744,4651.28205128,4104.1025641,4652.82051282,4742.56410256,4644.61538462,4787.17948718,4426.15384615,4600.0,4410.76923077,4314.35897436,1701.0,1661.0,10.35,0.0,0.0,0.0,0.0,mike,0
120.0,4818.97435897,4713.33333333,4673.33333333,4421.02564103,4647.69230769,4103.58974359,4647.69230769,4737.43589744,4640.51282051,4785.64102564,4428.20512821,4604.61538462,4418.97435897,4313.33333333,1701.0,1660.0,10.357,0.0,0.0,0.0,0.0,mike,0
121.0,4820.51282051,4723.07692308,4681.53846154,4430.76923077,4651.79487179,4108.71794872,4648.71794872,4735.38461538,4641.02564103,4793.33333333,4430.25641026,4606.15384615,4423.58974359,4327.69230769,1700.0,1660.0,10.365,0.0,0.0,0.0,0.0,mike,0
122.0,4814.35897436,4714.87179487,4675.38461538,4422.05128205,4638.97435897,4099.48717949,4644.1025641,4730.76923077,4635.38461538,4787.17948718,4420.51282051,4599.48717949,4411.79487179,4322.56410256,1700.0,1659.0,10.373,0.0,0.0,0.0,0.0,mike,0
123.0,4807.69230769,4704.61538462,4665.64102564,4410.25641026,4633.84615385,4091.28205128,4640.51282051,4732.82051282,4629.23076923,4775.38461538,4409.23076923,4594.35897436,4403.58974359,4304.1025641,1700.0,1658.0,10.381,0.0,0.0,0.0,0.0,mike,0
124.0,4811.28205128,4714.87179487,4675.38461538,4423.58974359,4655.38461538,4103.07692308,4652.30769231,4748.20512821,4642.05128205,4785.64102564,4417.43589744,4599.48717949,4411.79487179,4308.71794872,1699.0,1657.0,10.389,0.0,0.0,0.0,0.0,mike,0
125.0,4815.8974359,4723.58974359,4682.05128205,4432.30769231,4665.64102564,4112.82051282,4661.02564103,4755.38461538,4653.84615385,4798.97435897,4431.79487179,4603.58974359,4417.94871795,4321.02564103,1700.0,1656.0,10.397,0.0,0.0,0.0,0.0,mike,0
126.0,4811.79487179,4709.74358974,4668.20512821,4414.87179487,4647.17948718,4105.64102564,4651.28205128,4747.17948718,4641.02564103,4793.33333333,4422.05128205,4597.94871795,4410.76923077,4314.35897436,1700.0,1656.0,10.404,0.0,0.0,0.0,0.0,mike,0
127.0,4808.71794872,4704.61538462,4662.56410256,4412.30769231,4641.02564103,4103.58974359,4646.15384615,4746.15384615,4631.28205128,4789.74358974,4411.79487179,4596.41025641,4409.23076923,4315.8974359,1699.0,1656.0,10.412,0.0,0.0,0.0,0.0,mike,0
128.0,4813.33333333,4717.43589744,4671.79487179,4429.23076923,4653.84615385,4109.23076923,4650.76923077,4752.30769231,4643.07692308,4797.43589744,4423.07692308,4601.53846154,4415.38461538,4328.20512821,1700.0,1655.0,10.42,0.0,0.0,0.0,0.0,mike,0
0.0,4815.38461538,4715.38461538,4672.82051282,4426.15384615,4645.64102564,4106.15384615,4647.17948718,4747.69230769,4650.25641026,4798.46153846,4424.1025641,4601.02564103,4415.38461538,4321.53846154,1699.0,1657.0,10.428,0.0,0.0,0.0,0.0,mike,0
1.0,4807.69230769,4703.07692308,4670.25641026,4411.28205128,4634.87179487,4100.0,4644.1025641,4746.15384615,4643.58974359,4792.82051282,4414.35897436,4597.94871795,4415.38461538,4313.84615385,1700.0,1656.0,10.436,0.0,0.0,0.0,0.0,mike,0
2.0,4814.35897436,4706.15384615,4678.97435897,4420.0,4649.74358974,4104.61538462,4652.82051282,4764.1025641,4651.79487179,4802.05128205,4428.20512821,4609.74358974,4426.15384615,4330.25641026,1698.0,1657.0,10.444,0.0,0.0,0.0,0.0,mike,0
3.0,4828.20512821,4710.25641026,4683.07692308,4428.20512821,4662.05128205,4108.20512821,4654.35897436,4774.35897436,4665.64102564,4812.30769231,4444.61538462,4621.53846154,4434.35897436,4343.58974359,1700.0,1658.0,10.451,0.0,0.0,0.0,0.0,mike,0
4.0,4818.46153846,4702.56410256,4672.30769231,4414.87179487,4648.20512821,4103.07692308,4645.64102564,4757.43589744,4655.38461538,4802.05128205,4431.79487179,4612.82051282,4424.1025641,4330.76923077,1698.0,1657.0,10.459,0.0,0.0,0.0,0.0,mike,0
5.0,4808.20512821,4701.53846154,4670.25641026,4409.23076923,4643.58974359,4102.56410256,4648.71794872,4749.74358974,4645.12820513,4797.43589744,4421.02564103,4607.69230769,4420.51282051,4326.66666667,1698.0,1660.0,10.467,0.0,0.0,0.0,0.0,mike,0
6.0,4822.56410256,4705.12820513,4680.0,4418.97435897,4656.92307692,4108.71794872,4658.46153846,4764.1025641,4654.87179487,4809.74358974,4434.35897436,4616.92307692,4435.38461538,4341.53846154,1699.0,1659.0,10.475,0.0,0.0,0.0,0.0,mike,0
7.0,4834.35897436,4704.1025641,4683.07692308,4424.61538462,4647.17948718,4108.20512821,4659.48717949,4770.25641026,4662.05128205,4817.43589744,4445.64102564,4623.07692308,4442.56410256,4346.66666667,1698.0,1660.0,10.483,0.0,0.0,0.0,0.0,mike,0
8.0,4823.58974359,4702.05128205,4675.38461538,4419.48717949,4630.25641026,4103.07692308,4652.82051282,4761.02564103,4652.82051282,4809.23076923,4440.51282051,4619.48717949,4434.35897436,4335.38461538,1699.0,1660.0,10.49,0.0,0.0,0.0,0.0,mike,0
9.0,4810.25641026,4697.43589744,4669.23076923,4413.84615385,4640.0,4103.58974359,4646.66666667,4755.38461538,4645.12820513,4801.53846154,4429.23076923,4610.25641026,4425.64102564,4325.12820513,1697.0,1661.0,10.498,0.0,0.0,0.0,0.0,mike,0
10.0,4810.76923077,4695.38461538,4672.82051282,4414.35897436,4653.84615385,4105.64102564,4647.17948718,4759.48717949,4651.28205128,4804.1025641,4431.79487179,4608.20512821,4426.66666667,4326.66666667,1698.0,1661.0,10.507,0.0,0.0,0.0,0.0,mike,0
11.0,4816.92307692,4702.05128205,4674.87179487,4418.46153846,4649.74358974,4097.94871795,4650.25641026,4761.53846154,4657.94871795,4806.66666667,4440.51282051,4616.41025641,4431.28205128,4328.71794872,1697.0,1662.0,10.522,0.0,0.0,0.0,0.0,mike,0
12.0,4812.30769231,4697.94871795,4668.20512821,4414.87179487,4643.58974359,4092.30769231,4644.1025641,4752.30769231,4649.74358974,4800.0,4433.84615385,4615.38461538,4424.1025641,4325.12820513,1698.0,1663.0,10.522,0.0,0.0,0.0,0.0,mike,0
13.0,4796.92307692,4681.53846154,4657.94871795,4402.56410256,4638.97435897,4096.92307692,4636.92307692,4735.38461538,4631.79487179,4785.64102564,4415.8974359,4595.38461538,4404.61538462,4312.82051282,1696.0,1662.0,10.53,0.0,0.0,0.0,0.0,mike,0
14.0,4791.28205128,4675.38461538,4654.35897436,4402.56410256,4629.74358974,4097.94871795,4636.41025641,4730.25641026,4627.17948718,4778.97435897,4408.20512821,4586.66666667,4396.41025641,4302.05128205,1698.0,1663.0,10.54,0.0,0.0,0.0,0.0,mike,0
15.0,4803.07692308,4683.58974359,4662.05128205,4412.30769231,4639.48717949,4098.97435897,4642.56410256,4741.02564103,4639.48717949,4786.15384615,4416.92307692,4598.46153846,4409.74358974,4305.12820513,1697.0,1662.0,10.545,0.0,0.0,0.0,0.0,mike,0
16.0,4813.33333333,4694.87179487,4673.84615385,4414.87179487,4657.43589744,4106.15384615,4653.33333333,4755.38461538,4651.79487179,4805.12820513,4428.71794872,4610.76923077,4424.61538462,4320.51282051,1696.0,1662.0,10.553,0.0,0.0,0.0,0.0,mike,0
17.0,4815.38461538,4703.58974359,4677.94871795,4416.41025641,4653.84615385,4107.69230769,4656.92307692,4762.56410256,4654.87179487,4815.38461538,4433.84615385,4616.41025641,4429.23076923,4331.79487179,1697.0,1662.0,10.561,0.0,0.0,0.0,0.0,mike,0
18.0,4816.92307692,4705.64102564,4675.38461538,4421.53846154,4650.76923077,4106.66666667,4653.84615385,4761.02564103,4653.33333333,4805.64102564,4434.35897436,4615.38461538,4432.30769231,4329.23076923,1696.0,1663.0,10.569,0.0,0.0,0.0,0.0,mike,0
19.0,4813.84615385,4697.43589744,4669.74358974,4416.92307692,4650.76923077,4103.07692308,4648.20512821,4752.30769231,4644.1025641,4796.92307692,4429.23076923,4606.15384615,4425.64102564,4322.05128205,1698.0,1662.0,10.576,0.0,0.0,0.0,0.0,mike,0
20.0,4810.25641026,4691.79487179,4663.58974359,4408.20512821,4642.56410256,4094.35897436,4639.48717949,4738.46153846,4633.33333333,4797.43589744,4420.0,4596.92307692,4412.30769231,4324.1025641,1697.0,1661.0,10.584,0.0,0.0,0.0,0.0,mike,0
21.0,4818.46153846,4698.46153846,4664.61538462,4410.25641026,4646.66666667,4096.41025641,4637.43589744,4733.84615385,4637.43589744,4798.97435897,4424.61538462,4600.0,4416.41025641,4329.23076923,1698.0,1660.0,10.592,0.0,0.0,0.0,0.0,mike,0
22.0,4830.25641026,4705.12820513,4674.35897436,4416.41025641,4656.41025641,4104.1025641,4642.56410256,4740.51282051,4647.17948718,4802.56410256,4440.0,4609.74358974,4430.25641026,4329.74358974,1697.0,1660.0,10.6,0.0,0.0,0.0,0.0,mike,0
23.0,4831.79487179,4704.1025641,4679.48717949,4423.07692308,4647.17948718,4101.02564103,4641.53846154,4745.64102564,4649.74358974,4811.79487179,4445.12820513,4617.94871795,4437.94871795,4338.97435897,1698.0,1660.0,10.608,0.0,0.0,0.0,0.0,mike,0
24.0,4831.79487179,4705.64102564,4680.51282051,4424.1025641,4641.53846154,4102.05128205,4637.94871795,4753.33333333,4654.35897436,4815.8974359,4442.05128205,4623.58974359,4441.53846154,4348.71794872,1697.0,1660.0,10.616,0.0,0.0,0.0,0.0,mike,0
25.0,4832.82051282,4703.58974359,4680.0,4414.35897436,4649.74358974,4105.64102564,4641.02564103,4761.02564103,4660.0,4812.82051282,4441.53846154,4621.02564103,4444.61538462,4336.41025641,1697.0,1662.0,10.623,0.0,0.0,0.0,0.0,mike,0
26.0,4829.74358974,4695.8974359,4672.30769231,4411.79487179,4647.17948718,4098.97435897,4643.07692308,4758.97435897,4656.92307692,4809.74358974,4442.05128205,4612.82051282,4442.05128205,4327.69230769,1698.0,1661.0,10.631,0.0,0.0,0.0,0.0,mike,0
27.0,4828.71794872,4696.92307692,4668.71794872,4418.97435897,4649.74358974,4100.51282051,4643.07692308,4754.35897436,4653.33333333,4810.25641026,4443.07692308,4610.76923077,4444.1025641,4343.58974359,1697.0,1662.0,10.639,0.0,0.0,0.0,0.0,mike,0
28.0,4828.20512821,4704.1025641,4674.87179487,4419.48717949,4661.02564103,4108.71794872,4649.23076923,4753.84615385,4656.41025641,4815.38461538,4446.66666667,4616.41025641,4450.25641026,4353.33333333,1698.0,1662.0,10.647,0.0,0.0,0.0,0.0,mike,0
29.0,4817.94871795,4702.56410256,4672.30769231,4413.33333333,4654.87179487,4105.64102564,4650.25641026,4752.82051282,4656.92307692,4815.8974359,4446.66666667,4617.94871795,4449.23076923,4338.97435897,1697.0,1662.0,10.655,0.0,0.0,0.0,0.0,mike,0
30.0,4813.84615385,4698.97435897,4661.53846154,4412.82051282,4646.66666667,4102.05128205,4642.56410256,4749.74358974,4653.84615385,4811.28205128,4444.61538462,4613.84615385,4442.56410256,4333.33333333,1697.0,1664.0,10.662,0.0,0.0,0.0,0.0,mike,0
31.0,4828.71794872,4704.61538462,4665.64102564,4416.92307692,4645.12820513,4103.58974359,4639.48717949,4752.82051282,4655.8974359,4811.28205128,4445.64102564,4613.84615385,4445.64102564,4344.1025641,1696.0,1665.0,10.67,0.0,0.0,0.0,0.0,mike,0
32.0,4837.94871795,4709.23076923,4677.43589744,4417.94871795,4634.87179487,4098.46153846,4641.02564103,4756.41025641,4660.51282051,4815.38461538,4446.66666667,4618.46153846,4454.87179487,4345.64102564,1697.0,1666.0,10.678,0.0,0.0,0.0,0.0,mike,0
33.0,4824.1025641,4701.02564103,4672.30769231,4412.82051282,4632.82051282,4090.25641026,4636.41025641,4752.30769231,4655.38461538,4813.84615385,4445.12820513,4613.84615385,4451.28205128,4335.8974359,1697.0,1666.0,10.686,0.0,0.0,0.0,0.0,mike,0
34.0,4810.76923077,4693.33333333,4661.02564103,4409.74358974,4651.79487179,4091.79487179,4629.74358974,4746.66666667,4647.17948718,4808.71794872,4441.53846154,4602.56410256,4440.51282051,4334.87179487,1697.0,1665.0,10.694,0.0,0.0,0.0,0.0,mike,0
35.0,4810.25641026,4697.94871795,4660.0,4411.28205128,4657.43589744,4092.82051282,4633.33333333,4746.66666667,4645.64102564,4807.69230769,4439.48717949,4597.94871795,4440.0,4336.92307692,1697.0,1665.0,10.702,0.0,0.0,0.0,0.0,mike,0
36.0,4813.33333333,4702.56410256,4663.58974359,4413.33333333,4645.64102564,4093.33333333,4639.48717949,4748.71794872,4646.15384615,4808.71794872,4441.02564103,4599.48717949,4443.58974359,4330.25641026,1697.0,1666.0,10.709,0.0,0.0,0.0,0.0,mike,0
37.0,4819.48717949,4702.56410256,4669.23076923,4416.41025641,4646.15384615,4101.02564103,4641.53846154,4747.17948718,4646.66666667,4811.79487179,4445.12820513,4603.58974359,4443.07692308,4331.79487179,1698.0,1664.0,10.717,0.0,0.0,0.0,0.0,mike,0
38.0,4826.15384615,4703.07692308,4673.84615385,4414.35897436,4651.28205128,4106.66666667,4644.1025641,4749.23076923,4647.17948718,4811.79487179,4444.1025641,4609.23076923,4442.56410256,4340.51282051,1697.0,1665.0,10.725,0.0,0.0,0.0,0.0,mike,0
39.0,4828.20512821,4701.53846154,4674.87179487,4412.30769231,4641.53846154,4104.61538462,4651.79487179,4751.79487179,4648.71794872,4810.76923077,4443.58974359,4617.94871795,4450.25641026,4342.56410256,1698.0,1664.0,10.733,0.0,0.0,0.0,0.0,mike,0
40.0,4827.69230769,4700.51282051,4681.53846154,4416.41025641,4637.94871795,4104.1025641,4660.51282051,4753.33333333,4657.43589744,4820.0,4455.8974359,4626.15384615,4461.53846154,4349.74358974,1696.0,1664.0,10.741,0.0,0.0,0.0,0.0,mike,0
41.0,4832.82051282,4704.1025641,4684.61538462,4418.46153846,4653.33333333,4107.69230769,4666.15384615,4753.33333333,4662.05128205,4823.58974359,4458.46153846,4627.17948718,4461.53846154,4356.41025641,1697.0,1664.0,10.749,0.0,0.0,0.0,0.0,mike,0
42.0,4831.28205128,4702.05128205,4675.38461538,4414.87179487,4655.38461538,4106.66666667,4667.17948718,4748.20512821,4655.38461538,4813.33333333,4446.15384615,4619.48717949,4453.84615385,4346.66666667,1696.0,1663.0,10.756,0.0,0.0,0.0,0.0,mike,0
43.0,4827.69230769,4703.58974359,4676.41025641,4417.94871795,4646.15384615,4105.64102564,4670.25641026,4751.79487179,4657.94871795,4817.43589744,4450.25641026,4622.56410256,4456.41025641,4344.1025641,1696.0,1663.0,10.764,0.0,0.0,0.0,0.0,mike,0
44.0,4837.94871795,4713.33333333,4687.17948718,4425.12820513,4652.30769231,4108.20512821,4678.97435897,4764.61538462,4668.71794872,4833.33333333,4466.15384615,4634.87179487,4465.64102564,4359.48717949,1696.0,1663.0,10.772,0.0,0.0,0.0,0.0,mike,0
45.0,4840.51282051,4711.28205128,4685.64102564,4421.02564103,4649.23076923,4107.17948718,4681.53846154,4763.07692308,4662.56410256,4826.15384615,4460.51282051,4628.20512821,4463.58974359,4357.94871795,1696.0,1663.0,10.78,0.0,0.0,0.0,0.0,mike,0
46.0,4825.12820513,4696.41025641,4677.94871795,4412.30769231,4639.48717949,4099.48717949,4673.84615385,4750.25641026,4647.69230769,4808.71794872,4448.71794872,4613.33333333,4452.30769231,4342.05128205,1696.0,1662.0,10.788,0.0,0.0,0.0,0.0,mike,0
47.0,4820.51282051,4691.28205128,4672.82051282,4411.28205128,4651.28205128,4093.33333333,4669.74358974,4747.69230769,4647.17948718,4809.23076923,4450.25641026,4614.35897436,4451.79487179,4337.94871795,1696.0,1663.0,10.795,0.0,0.0,0.0,0.0,mike,0
48.0,4832.30769231,4696.41025641,4672.82051282,4414.87179487,4655.38461538,4094.35897436,4673.84615385,4752.30769231,4651.28205128,4816.92307692,4452.30769231,4618.97435897,4458.46153846,4344.61538462,1696.0,1662.0,10.803,0.0,0.0,0.0,0.0,mike,0
49.0,4829.74358974,4694.87179487,4675.38461538,4410.76923077,4645.64102564,4097.43589744,4674.35897436,4750.25641026,4647.17948718,4815.8974359,4447.17948718,4615.8974359,4451.79487179,4340.51282051,1696.0,1662.0,10.811,0.0,0.0,0.0,0.0,mike,0
50.0,4814.87179487,4692.30769231,4674.87179487,4407.69230769,4650.76923077,4096.41025641,4673.33333333,4747.69230769,4649.23076923,4812.30769231,4449.23076923,4615.38461538,4447.17948718,4333.84615385,1695.0,1663.0,10.82,0.0,0.0,0.0,0.0,mike,0
51.0,4814.87179487,4695.8974359,4673.84615385,4416.92307692,4647.17948718,4092.30769231,4674.35897436,4749.74358974,4657.43589744,4813.84615385,4456.41025641,4619.48717949,4456.41025641,4339.48717949,1695.0,1664.0,10.827,0.0,0.0,0.0,0.0,mike,0
52.0,4820.0,4692.82051282,4674.35897436,4420.51282051,4636.41025641,4091.28205128,4668.20512821,4752.30769231,4653.84615385,4816.92307692,4454.35897436,4614.87179487,4454.35897436,4338.46153846,1695.0,1663.0,10.835,0.0,0.0,0.0,0.0,mike,0
53.0,4807.17948718,4681.02564103,4663.07692308,4405.64102564,4651.28205128,4094.87179487,4661.53846154,4751.28205128,4647.17948718,4814.87179487,4450.25641026,4604.1025641,4442.05128205,4328.20512821,1695.0,1663.0,10.842,0.0,0.0,0.0,0.0,mike,0
54.0,4797.43589744,4677.94871795,4653.84615385,4394.87179487,4653.84615385,4092.30769231,4666.66666667,4752.82051282,4654.35897436,4811.79487179,4453.84615385,4604.1025641,4446.66666667,4324.1025641,1694.0,1662.0,10.851,0.0,0.0,0.0,0.0,mike,0
55.0,4817.94871795,4688.20512821,4667.69230769,4404.61538462,4641.02564103,4089.23076923,4674.87179487,4765.64102564,4667.69230769,4822.05128205,4460.0,4618.97435897,4460.0,4336.41025641,1694.0,1663.0,10.858,0.0,0.0,0.0,0.0,mike,0
56.0,4829.74358974,4693.33333333,4680.0,4414.87179487,4643.58974359,4096.92307692,4676.92307692,4778.97435897,4670.25641026,4830.76923077,4462.56410256,4627.69230769,4462.05128205,4349.23076923,1695.0,1662.0,10.866,0.0,0.0,0.0,0.0,mike,0
57.0,4815.38461538,4690.25641026,4677.43589744,4412.82051282,4651.28205128,4109.23076923,4680.51282051,4778.46153846,4667.69230769,4828.20512821,4464.1025641,4629.23076923,4460.51282051,4349.74358974,1694.0,1663.0,10.874,0.0,0.0,0.0,0.0,mike,0
58.0,4810.25641026,4687.69230769,4672.82051282,4410.25641026,4651.28205128,4107.69230769,4681.53846154,4770.25641026,4667.17948718,4826.66666667,4464.1025641,4629.74358974,4461.53846154,4343.07692308,1695.0,1663.0,10.881,0.0,0.0,0.0,0.0,mike,0
59.0,4812.82051282,4681.53846154,4669.23076923,4410.25641026,4635.8974359,4096.41025641,4672.82051282,4765.64102564,4663.07692308,4825.12820513,4460.0,4622.56410256,4456.41025641,4336.41025641,1694.0,1663.0,10.889,0.0,0.0,0.0,0.0,mike,0
60.0,4808.71794872,4678.97435897,4669.74358974,4411.28205128,4628.71794872,4100.51282051,4672.82051282,4766.15384615,4663.58974359,4822.05128205,4457.94871795,4615.38461538,4452.82051282,4336.92307692,1695.0,1663.0,10.897,0.0,0.0,0.0,0.0,mike,0
61.0,4812.30769231,4687.17948718,4675.38461538,4413.84615385,4648.71794872,4113.33333333,4684.1025641,4771.79487179,4672.82051282,4827.69230769,4460.0,4617.43589744,4458.97435897,4342.56410256,1694.0,1662.0,10.905,0.0,0.0,0.0,0.0,mike,0
62.0,4812.30769231,4688.71794872,4676.41025641,4409.74358974,4653.33333333,4105.12820513,4682.56410256,4774.87179487,4673.84615385,4831.79487179,4463.58974359,4618.46153846,4461.53846154,4338.97435897,1694.0,1662.0,10.913,0.0,0.0,0.0,0.0,mike,0
63.0,4802.56410256,4678.97435897,4670.76923077,4405.12820513,4632.30769231,4091.79487179,4668.71794872,4768.20512821,4661.53846154,4826.15384615,4461.02564103,4616.92307692,4453.84615385,4329.23076923,1694.0,1662.0,10.921,0.0,0.0,0.0,0.0,mike,0
64.0,4804.61538462,4677.43589744,4671.79487179,4407.69230769,4638.46153846,4102.56410256,4672.30769231,4765.12820513,4658.46153846,4825.12820513,4457.94871795,4620.51282051,4449.74358974,4335.38461538,1694.0,1662.0,10.928,0.0,0.0,0.0,0.0,mike,0
65.0,4814.35897436,4687.69230769,4674.87179487,4408.71794872,4654.35897436,4111.28205128,4677.43589744,4763.07692308,4657.94871795,4822.56410256,4457.94871795,4622.05128205,4449.74358974,4342.05128205,1695.0,1662.0,10.936,0.0,0.0,0.0,0.0,mike,0
66.0,4816.41025641,4688.71794872,4669.23076923,4405.12820513,4637.94871795,4094.87179487,4660.0,4752.30769231,4649.23076923,4812.82051282,4452.30769231,4612.30769231,4444.1025641,4329.23076923,1695.0,1662.0,10.944,0.0,0.0,0.0,0.0,mike,0
67.0,4810.76923077,4676.92307692,4663.07692308,4401.53846154,4628.20512821,4080.51282051,4644.1025641,4745.12820513,4644.1025641,4810.25641026,4442.56410256,4602.05128205,4440.51282051,4321.02564103,1695.0,1661.0,10.952,0.0,0.0,0.0,0.0,mike,0
68.0,4801.02564103,4670.76923077,4663.07692308,4396.92307692,4640.51282051,4084.1025641,4647.17948718,4748.20512821,4646.15384615,4812.82051282,4443.07692308,4602.05128205,4441.53846154,4325.12820513,1695.0,1662.0,10.96,0.0,0.0,0.0,0.0,mike,0
69.0,4798.97435897,4678.97435897,4665.64102564,4400.0,4639.48717949,4087.69230769,4653.33333333,4752.30769231,4647.17948718,4812.30769231,4452.30769231,4612.82051282,4442.56410256,4327.69230769,1696.0,1662.0,10.967,0.0,0.0,0.0,0.0,mike,0
70.0,4811.28205128,4686.66666667,4669.23076923,4410.76923077,4635.8974359,4092.30769231,4661.02564103,4760.0,4654.87179487,4819.48717949,4457.43589744,4618.97435897,4449.23076923,4333.33333333,1695.0,1662.0,10.975,0.0,0.0,0.0,0.0,mike,0
71.0,4818.46153846,4689.23076923,4674.87179487,4411.28205128,4651.79487179,4104.61538462,4674.35897436,4766.66666667,4665.12820513,4832.30769231,4460.0,4620.0,4458.97435897,4342.56410256,1696.0,1663.0,10.983,0.0,0.0,0.0,0.0,mike,0
72.0,4813.33333333,4686.66666667,4673.33333333,4403.58974359,4654.35897436,4107.69230769,4673.84615385,4757.43589744,4658.97435897,4828.20512821,4455.8974359,4616.41025641,4453.84615385,4340.51282051,1696.0,1662.0,10.991,0.0,0.0,0.0,0.0,mike,0
73.0,4810.76923077,4683.07692308,4668.20512821,4401.53846154,4636.92307692,4097.43589744,4663.07692308,4745.12820513,4647.17948718,4814.87179487,4444.61538462,4608.20512821,4441.02564103,4327.69230769,1695.0,1664.0,10.999,0.0,0.0,0.0,0.0,mike,0
74.0,4814.35897436,4682.56410256,4665.12820513,4404.61538462,4638.46153846,4093.84615385,4662.05128205,4747.69230769,4647.17948718,4813.33333333,4439.48717949,4603.07692308,4439.48717949,4318.97435897,1695.0,1663.0,11.007,0.0,0.0,0.0,0.0,mike,0
75.0,4809.74358974,4681.53846154,4663.07692308,4404.61538462,4649.74358974,4098.97435897,4662.56410256,4748.20512821,4649.74358974,4817.43589744,4442.56410256,4603.07692308,4444.1025641,4319.48717949,1696.0,1664.0,11.014,0.0,0.0,0.0,0.0,mike,0
76.0,4797.43589744,4675.38461538,4661.53846154,4398.46153846,4642.56410256,4093.84615385,4652.30769231,4736.92307692,4644.61538462,4814.35897436,4448.20512821,4601.53846154,4444.61538462,4322.56410256,1695.0,1663.0,11.022,0.0,0.0,0.0,0.0,mike,0
77.0,4801.02564103,4677.43589744,4663.58974359,4401.02564103,4636.41025641,4088.71794872,4647.69230769,4733.33333333,4644.1025641,4814.87179487,4455.8974359,4607.69230769,4444.1025641,4331.28205128,1695.0,1664.0,11.03,0.0,0.0,0.0,0.0,mike,0
78.0,4813.33333333,4685.12820513,4668.20512821,4407.69230769,4634.87179487,4089.74358974,4653.33333333,4738.97435897,4646.66666667,4817.43589744,4455.38461538,4617.43589744,4444.1025641,4336.41025641,1695.0,1663.0,11.038,0.0,0.0,0.0,0.0,mike,0
79.0,4811.79487179,4680.51282051,4669.74358974,4401.53846154,4627.69230769,4089.74358974,4655.8974359,4741.53846154,4644.1025641,4813.33333333,4445.12820513,4613.33333333,4444.61538462,4330.25641026,1694.0,1664.0,11.046,0.0,0.0,0.0,0.0,mike,0
80.0,4810.76923077,4678.46153846,4673.84615385,4399.48717949,4637.94871795,4093.33333333,4659.48717949,4746.15384615,4645.12820513,4812.30769231,4445.64102564,4609.23076923,4444.1025641,4329.23076923,1695.0,1664.0,11.053,0.0,0.0,0.0,0.0,mike,0
81.0,4816.41025641,4680.0,4672.82051282,4405.64102564,4653.84615385,4095.38461538,4664.1025641,4752.30769231,4650.76923077,4815.8974359,4451.79487179,4615.38461538,4443.07692308,4333.33333333,1694.0,1663.0,11.061,0.0,0.0,0.0,0.0,mike,0
82.0,4817.43589744,4677.43589744,4667.17948718,4402.05128205,4644.1025641,4091.28205128,4662.56410256,4752.30769231,4649.23076923,4817.43589744,4447.17948718,4614.35897436,4445.64102564,4329.74358974,1695.0,1664.0,11.069,0.0,0.0,0.0,0.0,mike,0
83.0,4810.76923077,4675.8974359,4662.05128205,4395.8974359,4630.25641026,4087.69230769,4657.94871795,4745.64102564,4637.94871795,4812.82051282,4434.35897436,4602.05128205,4441.53846154,4322.56410256,1694.0,1664.0,11.077,0.0,0.0,0.0,0.0,mike,0
84.0,4800.51282051,4673.84615385,4662.05128205,4398.97435897,4628.20512821,4089.74358974,4653.33333333,4740.51282051,4631.79487179,4808.71794872,4433.33333333,4596.41025641,4428.71794872,4323.07692308,1695.0,1664.0,11.085,0.0,0.0,0.0,0.0,mike,0
85.0,4801.02564103,4672.30769231,4664.1025641,4399.48717949,4621.53846154,4088.71794872,4648.20512821,4738.46153846,4633.84615385,4811.28205128,4442.56410256,4599.48717949,4428.71794872,4325.64102564,1695.0,1663.0,11.093,0.0,0.0,0.0,0.0,mike,0
86.0,4810.25641026,4674.87179487,4663.58974359,4396.41025641,4621.53846154,4083.58974359,4646.66666667,4735.8974359,4635.38461538,4813.33333333,4444.61538462,4600.0,4440.0,4324.61538462,1694.0,1663.0,11.101,0.0,0.0,0.0,0.0,mike,0
87.0,4813.33333333,4680.0,4668.71794872,4398.97435897,4633.33333333,4084.1025641,4645.64102564,4736.41025641,4639.48717949,4812.30769231,4445.64102564,4605.12820513,4444.1025641,4330.25641026,1695.0,1663.0,11.108,0.0,0.0,0.0,0.0,mike,0
88.0,4819.48717949,4684.61538462,4680.0,4402.05128205,4635.38461538,4089.74358974,4645.64102564,4744.61538462,4648.71794872,4819.48717949,4456.41025641,4616.92307692,4445.12820513,4340.51282051,1694.0,1662.0,11.116,0.0,0.0,0.0,0.0,mike,0
89.0,4823.58974359,4688.20512821,4686.15384615,4402.56410256,4635.38461538,4094.87179487,4651.79487179,4750.76923077,4652.30769231,4830.76923077,4463.07692308,4623.07692308,4448.71794872,4348.20512821,1695.0,1662.0,11.124,0.0,0.0,0.0,0.0,mike,0
90.0,4817.43589744,4678.97435897,4676.92307692,4400.0,4644.61538462,4094.87179487,4654.35897436,4749.23076923,4644.61538462,4826.15384615,4454.35897436,4615.8974359,4446.15384615,4344.1025641,1694.0,1662.0,11.132,0.0,0.0,0.0,0.0,mike,0
91.0,4807.17948718,4665.12820513,4666.15384615,4397.43589744,4640.0,4092.82051282,4650.25641026,4749.23076923,4642.56410256,4814.35897436,4445.64102564,4607.69230769,4440.0,4333.84615385,1695.0,1662.0,11.139,0.0,0.0,0.0,0.0,mike,0
92.0,4796.41025641,4664.1025641,4657.94871795,4394.87179487,4623.07692308,4085.12820513,4646.15384615,4748.71794872,4646.15384615,4813.84615385,4440.51282051,4601.53846154,4434.35897436,4324.1025641,1694.0,1661.0,11.147,0.0,0.0,0.0,0.0,mike,0
93.0,4789.23076923,4662.56410256,4648.71794872,4390.76923077,4623.58974359,4080.0,4646.66666667,4746.66666667,4642.56410256,4811.79487179,4438.46153846,4595.8974359,4426.15384615,4318.46153846,1695.0,1662.0,11.155,0.0,0.0,0.0,0.0,mike,0
94.0,4790.25641026,4655.8974359,4647.17948718,4387.69230769,4636.92307692,4088.20512821,4652.82051282,4747.17948718,4638.46153846,4807.17948718,4440.0,4593.84615385,4421.53846154,4318.46153846,1696.0,1661.0,11.163,0.0,0.0,0.0,0.0,mike,0
95.0,4795.38461538,4664.1025641,4657.43589744,4391.79487179,4641.53846154,4095.38461538,4660.51282051,4754.87179487,4648.71794872,4817.43589744,4444.61538462,4602.56410256,4431.79487179,4326.15384615,1695.0,1661.0,11.171,0.0,0.0,0.0,0.0,mike,0
96.0,4804.1025641,4681.02564103,4672.30769231,4401.53846154,4639.48717949,4094.35897436,4660.51282051,4767.17948718,4664.1025641,4831.28205128,4455.38461538,4620.0,4451.79487179,4345.12820513,1696.0,1660.0,11.179,0.0,0.0,0.0,0.0,mike,0
97.0,4811.28205128,4682.05128205,4674.35897436,4402.56410256,4635.8974359,4093.33333333,4652.30769231,4765.64102564,4660.51282051,4830.25641026,4462.05128205,4622.56410256,4452.82051282,4351.79487179,1696.0,1660.0,11.186,0.0,0.0,0.0,0.0,mike,0
98.0,4808.20512821,4670.76923077,4670.76923077,4394.87179487,4627.69230769,4090.76923077,4648.71794872,4756.41025641,4653.33333333,4825.12820513,4459.48717949,4615.8974359,4441.53846154,4342.56410256,1696.0,1661.0,11.194,0.0,0.0,0.0,0.0,mike,0
99.0,4817.43589744,4677.43589744,4682.05128205,4401.53846154,4632.30769231,4096.41025641,4658.46153846,4765.12820513,4666.15384615,4832.30769231,4462.56410256,4630.25641026,4451.28205128,4347.17948718,1696.0,1661.0,11.202,0.0,0.0,0.0,0.0,mike,0
100.0,4823.58974359,4688.20512821,4690.76923077,4409.74358974,4654.87179487,4107.17948718,4667.69230769,4775.38461538,4673.33333333,4835.8974359,4468.20512821,4641.53846154,4461.53846154,4354.35897436,1696.0,1661.0,11.21,0.0,0.0,0.0,0.0,mike,0
101.0,4802.05128205,4676.92307692,4678.97435897,4401.02564103,4658.97435897,4098.46153846,4657.43589744,4766.15384615,4658.97435897,4827.69230769,4460.0,4622.05128205,4446.15384615,4346.15384615,1695.0,1660.0,11.218,0.0,0.0,0.0,0.0,mike,0
102.0,4800.0,4670.76923077,4674.87179487,4398.46153846,4643.58974359,4087.17948718,4650.25641026,4761.53846154,4653.84615385,4825.12820513,4456.41025641,4615.8974359,4443.58974359,4349.23076923,1696.0,1661.0,11.225,0.0,0.0,0.0,0.0,mike,0
103.0,4820.0,4681.02564103,4683.07692308,4404.61538462,4637.43589744,4096.41025641,4657.43589744,4765.12820513,4662.56410256,4829.23076923,4464.61538462,4630.76923077,4457.43589744,4364.61538462,1696.0,1662.0,11.233,0.0,0.0,0.0,0.0,mike,0
104.0,4815.8974359,4675.8974359,4674.87179487,4400.51282051,4636.92307692,4096.41025641,4655.8974359,4757.94871795,4656.92307692,4829.74358974,4461.02564103,4624.61538462,4451.79487179,4355.8974359,1697.0,1661.0,11.241,0.0,0.0,0.0,0.0,mike,0
105.0,4801.53846154,4663.07692308,4663.07692308,4396.41025641,4626.15384615,4084.1025641,4646.66666667,4750.76923077,4648.20512821,4827.17948718,4450.76923077,4614.87179487,4440.0,4339.48717949,1697.0,1662.0,11.249,0.0,0.0,0.0,0.0,mike,0
106.0,4802.05128205,4665.64102564,4664.61538462,4398.46153846,4622.05128205,4085.64102564,4640.51282051,4748.20512821,4647.17948718,4820.0,4446.15384615,4614.35897436,4439.48717949,4336.92307692,1697.0,1661.0,11.257,0.0,0.0,0.0,0.0,mike,0
107.0,4800.51282051,4666.15384615,4666.15384615,4396.41025641,4637.94871795,4091.28205128,4641.02564103,4746.15384615,4645.12820513,4814.87179487,4445.64102564,4608.71794872,4438.46153846,4331.79487179,1696.0,1662.0,11.265,0.0,0.0,0.0,0.0,mike,0
108.0,4793.33333333,4665.12820513,4663.07692308,4395.8974359,4653.33333333,4092.82051282,4647.17948718,4747.69230769,4648.20512821,4824.1025641,4447.69230769,4604.1025641,4440.0,4323.07692308,1697.0,1661.0,11.272,0.0,0.0,0.0,0.0,mike,0
109.0,4797.43589744,4673.84615385,4663.58974359,4396.92307692,4647.69230769,4095.8974359,4648.20512821,4753.84615385,4654.87179487,4832.82051282,4448.71794872,4607.17948718,4445.12820513,4326.66666667,1696.0,1662.0,11.28,0.0,0.0,0.0,0.0,mike,0
110.0,4798.46153846,4673.33333333,4663.58974359,4395.38461538,4626.66666667,4091.79487179,4641.53846154,4752.30769231,4648.71794872,4823.07692308,4447.69230769,4602.56410256,4441.53846154,4336.41025641,1696.0,1662.0,11.288,0.0,0.0,0.0,0.0,mike,0
111.0,4787.17948718,4663.07692308,4654.87179487,4392.30769231,4624.1025641,4084.1025641,4639.48717949,4740.51282051,4634.35897436,4811.28205128,4442.56410256,4590.25641026,4431.28205128,4329.74358974,1696.0,1662.0,11.296,0.0,0.0,0.0,0.0,mike,0
112.0,4777.94871795,4662.05128205,4646.66666667,4389.74358974,4632.82051282,4082.05128205,4636.41025641,4731.79487179,4631.28205128,4812.30769231,4436.41025641,4583.58974359,4425.12820513,4313.84615385,1697.0,1663.0,11.304,0.0,0.0,0.0,0.0,mike,0
113.0,4777.94871795,4661.02564103,4642.56410256,4387.17948718,4626.15384615,4078.46153846,4624.61538462,4730.76923077,4634.35897436,4813.33333333,4436.41025641,4583.07692308,4425.64102564,4310.76923077,1696.0,1661.0,11.312,0.0,0.0,0.0,0.0,mike,0
114.0,4780.0,4655.38461538,4641.53846154,4388.71794872,4621.02564103,4078.46153846,4625.12820513,4735.38461538,4631.79487179,4810.76923077,4438.97435897,4586.15384615,4426.66666667,4316.41025641,1696.0,1662.0,11.319,0.0,0.0,0.0,0.0,mike,0
115.0,4780.0,4658.46153846,4648.71794872,4393.33333333,4632.82051282,4088.71794872,4638.97435897,4746.15384615,4637.94871795,4813.33333333,4441.53846154,4593.33333333,4433.33333333,4322.05128205,1697.0,1662.0,11.327,0.0,0.0,0.0,0.0,mike,0
116.0,4787.69230769,4663.58974359,4658.46153846,4396.41025641,4637.43589744,4090.76923077,4640.51282051,4748.20512821,4647.69230769,4817.43589744,4446.15384615,4600.0,4439.48717949,4325.64102564,1696.0,1662.0,11.335,0.0,0.0,0.0,0.0,mike,0
117.0,4794.87179487,4661.02564103,4656.41025641,4395.38461538,4634.35897436,4083.07692308,4630.76923077,4734.35897436,4642.05128205,4814.35897436,4446.66666667,4600.51282051,4435.38461538,4328.20512821,1697.0,1662.0,11.343,0.0,0.0,0.0,0.0,mike,0
118.0,4794.35897436,4664.61538462,4654.35897436,4395.8974359,4633.33333333,4083.07692308,4631.79487179,4731.79487179,4634.87179487,4814.35897436,4445.64102564,4598.97435897,4436.92307692,4337.94871795,1696.0,1662.0,11.351,0.0,0.0,0.0,0.0,mike,0
119.0,4800.51282051,4676.41025641,4665.12820513,4398.97435897,4626.66666667,4089.23076923,4635.8974359,4746.66666667,4645.12820513,4825.64102564,4455.8974359,4606.66666667,4447.69230769,4352.82051282,1696.0,1661.0,11.358,0.0,0.0,0.0,0.0,mike,0
120.0,4814.35897436,4682.05128205,4676.41025641,4401.02564103,4635.38461538,4094.35897436,4636.92307692,4752.82051282,4655.38461538,4829.23076923,4463.07692308,4611.28205128,4449.23076923,4354.35897436,1695.0,1663.0,11.366,0.0,0.0,0.0,0.0,mike,0
121.0,4817.94871795,4680.0,4674.35897436,4401.53846154,4650.76923077,4094.87179487,4641.02564103,4748.71794872,4647.17948718,4817.43589744,4455.38461538,4605.64102564,4444.1025641,4340.51282051,1697.0,1663.0,11.374,0.0,0.0,0.0,0.0,mike,0
122.0,4804.1025641,4672.30769231,4665.64102564,4400.0,4629.23076923,4086.15384615,4640.0,4743.07692308,4634.87179487,4810.25641026,4447.17948718,4601.02564103,4438.46153846,4332.30769231,1696.0,1661.0,11.383,0.0,0.0,0.0,0.0,mike,0
123.0,4793.84615385,4665.12820513,4664.1025641,4394.87179487,4612.30769231,4079.48717949,4632.30769231,4738.97435897,4635.8974359,4812.30769231,4444.1025641,4601.02564103,4429.23076923,4331.79487179,1696.0,1663.0,11.39,0.0,0.0,0.0,0.0,mike,0
124.0,4796.92307692,4671.79487179,4671.28205128,4397.94871795,4636.41025641,4085.12820513,4632.30769231,4745.64102564,4642.56410256,4814.35897436,4446.66666667,4602.05128205,4429.74358974,4337.94871795,1697.0,1661.0,11.398,0.0,0.0,0.0,0.0,mike,0
125.0,4800.51282051,4676.41025641,4667.17948718,4402.05128205,4638.46153846,4084.61538462,4636.41025641,4748.20512821,4638.97435897,4813.33333333,4448.20512821,4599.48717949,4433.84615385,4341.53846154,1696.0,1662.0,11.405,0.0,0.0,0.0,0.0,mike,0
126.0,4796.92307692,4667.17948718,4654.87179487,4394.35897436,4616.41025641,4075.38461538,4631.79487179,4734.87179487,4628.20512821,4811.28205128,4441.02564103,4594.87179487,4428.71794872,4334.87179487,1697.0,1662.0,11.413,0.0,0.0,0.0,0.0,mike,0
127.0,4795.8974359,4666.66666667,4658.46153846,4388.71794872,4628.71794872,4078.97435897,4629.74358974,4728.71794872,4633.84615385,4810.76923077,4443.58974359,4596.41025641,4433.33333333,4336.41025641,1695.0,1662.0,11.421,0.0,0.0,0.0,0.0,mike,0
128.0,4798.46153846,4673.33333333,4664.61538462,4392.82051282,4644.61538462,4083.58974359,4630.76923077,4740.0,4640.51282051,4812.30769231,4455.38461538,4599.48717949,4443.58974359,4344.1025641,1697.0,1662.0,11.429,0.0,0.0,0.0,0.0,mike,0
0.0,4793.84615385,4672.82051282,4658.97435897,4398.97435897,4635.8974359,4082.56410256,4630.76923077,4747.17948718,4636.41025641,4812.82051282,4456.41025641,4602.05128205,4443.07692308,4339.48717949,1695.0,1661.0,11.437,0.0,0.0,0.0,0.0,mike,0
1.0,4788.71794872,4671.28205128,4657.94871795,4398.46153846,4629.23076923,4084.1025641,4628.20512821,4741.02564103,4633.84615385,4813.33333333,4448.71794872,4602.56410256,4438.46153846,4329.74358974,1696.0,1663.0,11.444,0.0,0.0,0.0,0.0,mike,0
2.0,4778.97435897,4659.48717949,4652.82051282,4388.20512821,4620.0,4076.92307692,4614.35897436,4726.15384615,4625.12820513,4802.56410256,4435.8974359,4587.69230769,4424.1025641,4317.94871795,1696.0,1661.0,11.452,0.0,0.0,0.0,0.0,mike,0
3.0,4761.02564103,4635.38461538,4632.82051282,4374.35897436,4607.17948718,4065.12820513,4601.02564103,4712.82051282,4609.23076923,4783.07692308,4413.84615385,4563.58974359,4397.43589744,4292.82051282,1696.0,1662.0,11.46,0.0,0.0,0.0,0.0,mike,0
4.0,4760.51282051,4632.82051282,4624.1025641,4374.87179487,4621.53846154,4074.35897436,4610.76923077,4716.92307692,4609.74358974,4781.53846154,4411.79487179,4563.07692308,4393.33333333,4288.20512821,1695.0,1661.0,11.468,0.0,0.0,0.0,0.0,mike,0
5.0,4778.46153846,4653.84615385,4637.43589744,4385.64102564,4636.41025641,4087.69230769,4630.25641026,4738.97435897,4628.20512821,4799.48717949,4435.8974359,4581.02564103,4415.8974359,4318.46153846,1696.0,1662.0,11.476,0.0,0.0,0.0,0.0,mike,0
6.0,4785.12820513,4661.53846154,4646.66666667,4386.15384615,4629.23076923,4082.05128205,4633.33333333,4752.30769231,4636.92307692,4809.74358974,4446.15384615,4588.71794872,4427.17948718,4331.79487179,1696.0,1660.0,11.484,0.0,0.0,0.0,0.0,mike,0
7.0,4778.97435897,4656.92307692,4646.66666667,4379.48717949,4628.71794872,4077.43589744,4629.23076923,4743.58974359,4632.30769231,4810.25641026,4439.48717949,4587.69230769,4424.1025641,4322.56410256,1695.0,1662.0,11.491,0.0,0.0,0.0,0.0,mike,0
8.0,4782.05128205,4656.41025641,4649.23076923,4380.51282051,4623.58974359,4080.0,4628.71794872,4736.92307692,4631.28205128,4811.79487179,4440.0,4588.71794872,4424.1025641,4323.07692308,1696.0,1661.0,11.499,0.0,0.0,0.0,0.0,mike,0
9.0,4795.38461538,4663.07692308,4658.46153846,4386.66666667,4615.8974359,4081.02564103,4631.28205128,4745.12820513,4638.97435897,4811.79487179,4444.61538462,4595.38461538,4426.66666667,4333.33333333,1695.0,1661.0,11.507,0.0,0.0,0.0,0.0,mike,0
10.0,4803.07692308,4670.25641026,4669.23076923,4388.20512821,4636.41025641,4088.20512821,4639.48717949,4751.79487179,4649.23076923,4819.48717949,4448.71794872,4606.15384615,4432.82051282,4337.43589744,1695.0,1663.0,11.515,0.0,0.0,0.0,0.0,mike,0
11.0,4800.51282051,4675.8974359,4675.38461538,4390.76923077,4659.48717949,4096.41025641,4641.53846154,4751.79487179,4651.79487179,4829.23076923,4451.28205128,4613.84615385,4444.1025641,4341.02564103,1695.0,1662.0,11.523,0.0,0.0,0.0,0.0,mike,0
12.0,4802.05128205,4678.46153846,4672.30769231,4395.38461538,4649.23076923,4088.20512821,4629.23076923,4747.69230769,4647.17948718,4824.1025641,4449.74358974,4612.82051282,4443.58974359,4347.17948718,1695.0,1661.0,11.53,0.0,0.0,0.0,0.0,mike,0
13.0,4802.05128205,4672.30769231,4658.46153846,4392.30769231,4630.25641026,4075.38461538,4615.8974359,4735.38461538,4635.38461538,4807.17948718,4444.61538462,4603.58974359,4428.71794872,4337.94871795,1695.0,1659.0,11.538,0.0,0.0,0.0,0.0,mike,0
14.0,4787.69230769,4661.53846154,4646.66666667,4383.07692308,4626.66666667,4071.28205128,4615.38461538,4729.74358974,4627.69230769,4800.0,4440.51282051,4594.87179487,4420.0,4321.02564103,1696.0,1660.0,11.546,0.0,0.0,0.0,0.0,mike,0
15.0,4783.58974359,4661.02564103,4651.28205128,4379.48717949,4620.0,4076.41025641,4626.15384615,4743.07692308,4638.46153846,4808.71794872,4441.02564103,4596.41025641,4425.64102564,4323.58974359,1695.0,1659.0,11.554,0.0,0.0,0.0,0.0,mike,0
16.0,4791.28205128,4667.17948718,4655.38461538,4383.58974359,4618.46153846,4086.66666667,4634.87179487,4752.30769231,4650.25641026,4817.43589744,4445.64102564,4602.56410256,4431.79487179,4334.35897436,1695.0,1661.0,11.562,0.0,0.0,0.0,0.0,mike,0
17.0,4785.12820513,4663.07692308,4649.23076923,4383.07692308,4631.28205128,4090.76923077,4634.35897436,4748.20512821,4644.1025641,4815.38461538,4446.15384615,4595.8974359,4429.23076923,4329.74358974,1695.0,1660.0,11.57,0.0,0.0,0.0,0.0,mike,0
18.0,4774.35897436,4655.8974359,4643.07692308,4375.8974359,4635.8974359,4082.05128205,4626.66666667,4744.1025641,4634.87179487,4812.30769231,4444.1025641,4585.64102564,4426.66666667,4324.1025641,1694.0,1662.0,11.577,0.0,0.0,0.0,0.0,mike,0
19.0,4775.38461538,4654.87179487,4641.02564103,4372.82051282,4625.64102564,4074.35897436,4619.48717949,4738.46153846,4631.79487179,4810.76923077,4440.51282051,4583.58974359,4426.15384615,4325.64102564,1695.0,1661.0,11.585,0.0,0.0,0.0,0.0,mike,0
20.0,4783.07692308,4655.38461538,4645.12820513,4378.46153846,4627.17948718,4081.53846154,4620.51282051,4736.92307692,4633.84615385,4808.71794872,4442.56410256,4591.79487179,4426.15384615,4327.17948718,1693.0,1662.0,11.593,0.0,0.0,0.0,0.0,mike,0
21.0,4793.33333333,4660.0,4660.51282051,4386.66666667,4643.07692308,4092.30769231,4632.82051282,4748.20512821,4644.61538462,4819.48717949,4454.87179487,4603.07692308,4435.38461538,4335.8974359,1694.0,1663.0,11.601,0.0,0.0,0.0,0.0,mike,0
22.0,4800.0,4663.58974359,4665.12820513,4389.23076923,4636.41025641,4088.20512821,4636.41025641,4755.38461538,4650.76923077,4828.20512821,4463.58974359,4604.61538462,4443.58974359,4344.1025641,1694.0,1662.0,11.609,0.0,0.0,0.0,0.0,mike,0
23.0,4793.33333333,4658.97435897,4651.79487179,4385.12820513,4621.53846154,4076.92307692,4623.07692308,4744.1025641,4641.53846154,4818.46153846,4459.48717949,4600.0,4437.94871795,4335.8974359,1693.0,1664.0,11.617,0.0,0.0,0.0,0.0,mike,0
24.0,4785.12820513,4654.87179487,4647.69230769,4381.02564103,4633.33333333,4077.43589744,4616.41025641,4734.35897436,4637.94871795,4812.82051282,4450.76923077,4600.0,4430.25641026,4325.64102564,1694.0,1664.0,11.624,0.0,0.0,0.0,0.0,mike,0
25.0,4779.48717949,4656.92307692,4650.25641026,4381.02564103,4633.84615385,4078.97435897,4617.43589744,4734.87179487,4638.46153846,4816.41025641,4445.64102564,4595.38461538,4429.74358974,4323.07692308,1694.0,1663.0,11.632,0.0,0.0,0.0,0.0,mike,0
26.0,4781.02564103,4657.43589744,4648.71794872,4382.05128205,4616.41025641,4074.35897436,4621.02564103,4732.30769231,4632.30769231,4813.33333333,4441.53846154,4585.64102564,4427.69230769,4324.61538462,1695.0,1664.0,11.64,0.0,0.0,0.0,0.0,mike,0
27.0,4794.35897436,4653.33333333,4651.28205128,4381.02564103,4623.07692308,4082.05128205,4628.71794872,4736.92307692,4633.84615385,4810.25641026,4444.1025641,4586.15384615,4425.64102564,4327.17948718,1695.0,1664.0,11.648,0.0,0.0,0.0,0.0,mike,0
28.0,4795.8974359,4650.76923077,4652.82051282,4381.53846154,4638.46153846,4089.23076923,4633.33333333,4744.61538462,4641.53846154,4814.87179487,4446.66666667,4589.74358974,4427.69230769,4326.15384615,1695.0,1663.0,11.656,0.0,0.0,0.0,0.0,mike,0
29.0,4781.53846154,4653.84615385,4646.15384615,4381.53846154,4630.76923077,4082.05128205,4631.79487179,4743.58974359,4640.51282051,4815.38461538,4444.1025641,4584.61538462,4427.69230769,4325.12820513,1695.0,1663.0,11.663,0.0,0.0,0.0,0.0,mike,0
30.0,4777.43589744,4661.53846154,4646.15384615,4381.02564103,4635.38461538,4084.1025641,4642.56410256,4743.58974359,4643.07692308,4816.41025641,4451.79487179,4589.74358974,4429.23076923,4331.79487179,1695.0,1663.0,11.671,0.0,0.0,0.0,0.0,mike,0
31.0,4784.1025641,4661.53846154,4648.20512821,4381.53846154,4644.1025641,4091.28205128,4654.87179487,4750.25641026,4648.71794872,4816.92307692,4454.35897436,4596.92307692,4430.25641026,4332.30769231,1695.0,1663.0,11.679,0.0,0.0,0.0,0.0,mike,0
32.0,4783.58974359,4654.35897436,4641.02564103,4380.51282051,4621.53846154,4084.61538462,4651.28205128,4750.76923077,4644.61538462,4813.33333333,4444.61538462,4591.79487179,4427.17948718,4323.58974359,1695.0,1662.0,11.687,0.0,0.0,0.0,0.0,mike,0
33.0,4783.07692308,4655.38461538,4642.56410256,4382.05128205,4615.8974359,4086.66666667,4655.8974359,4750.25641026,4645.64102564,4820.51282051,4446.66666667,4592.30769231,4430.76923077,4323.58974359,1695.0,1663.0,11.695,0.0,0.0,0.0,0.0,mike,0
34.0,4787.17948718,4660.0,4649.23076923,4383.07692308,4645.64102564,4093.33333333,4665.64102564,4751.28205128,4649.74358974,4825.12820513,4454.87179487,4597.43589744,4434.35897436,4331.28205128,1695.0,1662.0,11.702,0.0,0.0,0.0,0.0,mike,0
35.0,4783.07692308,4653.84615385,4640.51282051,4380.51282051,4639.48717949,4080.51282051,4657.94871795,4739.48717949,4636.92307692,4812.82051282,4445.64102564,4585.12820513,4422.56410256,4324.1025641,1695.0,1662.0,11.71,0.0,0.0,0.0,0.0,mike,0
36.0,4773.33333333,4646.15384615,4628.20512821,4380.0,4608.20512821,4068.71794872,4649.74358974,4729.23076923,4625.12820513,4805.12820513,4437.94871795,4572.30769231,4412.82051282,4309.74358974,1696.0,1661.0,11.718,0.0,0.0,0.0,0.0,mike,0
37.0,4768.20512821,4647.69230769,4632.30769231,4378.97435897,4613.84615385,4074.35897436,4659.48717949,4734.35897436,4629.74358974,4810.76923077,4444.1025641,4580.0,4417.43589744,4310.76923077,1695.0,1662.0,11.726,0.0,0.0,0.0,0.0,mike,0
38.0,4770.76923077,4646.66666667,4646.15384615,4378.97435897,4640.0,4080.51282051,4667.69230769,4738.97435897,4633.33333333,4810.76923077,4440.51282051,4587.17948718,4420.0,4319.48717949,1696.0,1662.0,11.734,0.0,0.0,0.0,0.0,mike,0
39.0,4776.92307692,4644.1025641,4648.20512821,4380.0,4638.97435897,4078.46153846,4665.12820513,4735.8974359,4629.74358974,4806.66666667,4434.87179487,4583.07692308,4418.46153846,4318.97435897,1695.0,1662.0,11.742,0.0,0.0,0.0,0.0,mike,0
40.0,4781.53846154,4648.71794872,4639.48717949,4381.02564103,4620.0,4075.8974359,4662.05128205,4737.43589744,4631.28205128,4810.76923077,4440.51282051,4582.56410256,4420.0,4319.48717949,1696.0,1663.0,11.75,0.0,0.0,0.0,0.0,mike,0
41.0,4783.58974359,4649.23076923,4636.41025641,4381.02564103,4614.87179487,4073.33333333,4662.05128205,4741.02564103,4633.84615385,4813.84615385,4445.12820513,4585.64102564,4421.02564103,4324.61538462,1696.0,1662.0,11.757,0.0,0.0,0.0,0.0,mike,0
42.0,4783.58974359,4643.58974359,4643.58974359,4381.02564103,4627.17948718,4076.92307692,4667.69230769,4740.0,4634.35897436,4811.79487179,4445.12820513,4584.1025641,4422.05128205,4323.07692308,1695.0,1664.0,11.765,0.0,0.0,0.0,0.0,mike,0
43.0,4783.07692308,4646.15384615,4648.20512821,4380.51282051,4635.8974359,4082.05128205,4674.35897436,4745.12820513,4640.51282051,4812.30769231,4445.64102564,4590.25641026,4428.71794872,4325.12820513,1695.0,1664.0,11.773,0.0,0.0,0.0,0.0,mike,0
44.0,4784.61538462,4651.28205128,4647.69230769,4382.56410256,4632.30769231,4078.97435897,4673.84615385,4749.23076923,4644.61538462,4815.8974359,4447.69230769,4598.97435897,4433.84615385,4333.33333333,1695.0,1663.0,11.781,0.0,0.0,0.0,0.0,mike,0
45.0,4782.56410256,4649.23076923,4648.71794872,4383.07692308,4628.20512821,4075.8974359,4674.35897436,4742.56410256,4637.43589744,4814.35897436,4446.15384615,4592.30769231,4429.23076923,4330.76923077,1695.0,1663.0,11.789,0.0,0.0,0.0,0.0,mike,0
46.0,4779.48717949,4648.20512821,4649.23076923,4378.97435897,4629.23076923,4078.97435897,4684.1025641,4738.97435897,4632.30769231,4807.17948718,4445.12820513,4589.23076923,4420.0,4322.05128205,1695.0,1664.0,11.796,0.0,0.0,0.0,0.0,mike,0
47.0,4781.53846154,4652.30769231,4650.76923077,4378.46153846,4628.71794872,4081.53846154,4691.79487179,4746.66666667,4636.41025641,4809.23076923,4446.15384615,4597.94871795,4417.43589744,4325.12820513,1696.0,1664.0,11.804,0.0,0.0,0.0,0.0,mike,0
48.0,4783.58974359,4651.28205128,4649.74358974,4379.48717949,4625.12820513,4077.43589744,4688.20512821,4744.61538462,4634.87179487,4810.25641026,4445.12820513,4594.35897436,4421.02564103,4324.61538462,1695.0,1664.0,11.813,0.0,0.0,0.0,0.0,mike,0
49.0,4780.0,4646.15384615,4639.48717949,4377.94871795,4618.97435897,4073.84615385,4682.56410256,4733.33333333,4626.15384615,4798.46153846,4441.53846154,4583.07692308,4419.48717949,4313.33333333,1696.0,1664.0,11.82,0.0,0.0,0.0,0.0,mike,0
50.0,4775.38461538,4644.1025641,4632.82051282,4374.35897436,4617.94871795,4074.35897436,4683.07692308,4732.82051282,4626.15384615,4794.87179487,4440.0,4584.1025641,4418.97435897,4314.87179487,1695.0,1663.0,11.828,0.0,0.0,0.0,0.0,mike,0
51.0,4774.87179487,4644.61538462,4638.97435897,4375.38461538,4628.20512821,4075.8974359,4687.17948718,4735.38461538,4632.30769231,4805.12820513,4443.58974359,4587.17948718,4425.12820513,4328.20512821,1696.0,1664.0,11.835,0.0,0.0,0.0,0.0,mike,0
52.0,4777.94871795,4650.25641026,4645.64102564,4377.43589744,4634.87179487,4080.0,4688.20512821,4733.33333333,4633.33333333,4811.28205128,4445.12820513,4590.76923077,4427.69230769,4328.20512821,1696.0,1663.0,11.843,0.0,0.0,0.0,0.0,mike,0
53.0,4780.51282051,4657.43589744,4646.66666667,4376.41025641,4628.20512821,4084.1025641,4687.69230769,4737.43589744,4633.84615385,4811.79487179,4442.05128205,4600.0,4426.66666667,4324.1025641,1695.0,1664.0,11.851,0.0,0.0,0.0,0.0,mike,0
54.0,4783.58974359,4658.97435897,4651.28205128,4377.94871795,4627.17948718,4082.56410256,4690.76923077,4748.20512821,4640.51282051,4813.84615385,4447.69230769,4601.53846154,4428.20512821,4336.41025641,1697.0,1663.0,11.859,0.0,0.0,0.0,0.0,mike,0
55.0,4788.71794872,4655.8974359,4658.46153846,4383.58974359,4637.94871795,4078.97435897,4691.79487179,4751.79487179,4647.69230769,4813.33333333,4457.94871795,4600.51282051,4430.25641026,4341.02564103,1696.0,1663.0,11.867,0.0,0.0,0.0,0.0,mike,0
56.0,4795.8974359,4657.94871795,4664.1025641,4386.66666667,4645.64102564,4082.05128205,4693.84615385,4751.28205128,4649.74358974,4812.82051282,4461.02564103,4609.23076923,4435.8974359,4335.38461538,1696.0,1663.0,11.875,0.0,0.0,0.0,0.0,mike,0
57.0,4799.48717949,4661.53846154,4666.66666667,4384.61538462,4635.38461538,4085.12820513,4694.87179487,4753.33333333,4643.58974359,4813.33333333,4458.97435897,4610.76923077,4437.94871795,4338.46153846,1696.0,1663.0,11.882,0.0,0.0,0.0,0.0,mike,0
58.0,4797.94871795,4664.1025641,4661.53846154,4386.15384615,4624.61538462,4083.58974359,4690.76923077,4748.20512821,4631.79487179,4807.69230769,4453.33333333,4604.61538462,4430.25641026,4341.53846154,1697.0,1662.0,11.89,0.0,0.0,0.0,0.0,mike,0
59.0,4797.94871795,4663.58974359,4657.43589744,4387.17948718,4638.46153846,4087.69230769,4692.30769231,4746.66666667,4631.79487179,4804.1025641,4451.79487179,4604.61538462,4425.12820513,4338.46153846,1696.0,1663.0,11.898,0.0,0.0,0.0,0.0,mike,0
60.0,4801.02564103,4657.94871795,4664.61538462,4382.56410256,4641.53846154,4091.79487179,4701.53846154,4758.97435897,4644.1025641,4810.25641026,4455.38461538,4611.79487179,4427.17948718,4333.84615385,1698.0,1663.0,11.907,0.0,0.0,0.0,0.0,mike,0
61.0,4801.02564103,4658.97435897,4673.33333333,4384.1025641,4619.48717949,4092.30769231,4706.66666667,4770.25641026,4651.28205128,4816.41025641,4460.0,4621.02564103,4432.30769231,4337.94871795,1696.0,1664.0,11.914,0.0,0.0,0.0,0.0,mike,0
62.0,4800.0,4661.02564103,4674.87179487,4389.23076923,4621.53846154,4092.82051282,4703.58974359,4766.66666667,4648.71794872,4813.84615385,4465.12820513,4624.61538462,4438.46153846,4347.17948718,1697.0,1665.0,11.921,0.0,0.0,0.0,0.0,mike,0
63.0,4808.71794872,4658.46153846,4677.43589744,4394.87179487,4650.25641026,4096.41025641,4704.61538462,4762.56410256,4648.20512821,4811.28205128,4472.82051282,4623.58974359,4441.53846154,4355.8974359,1697.0,1663.0,11.929,0.0,0.0,0.0,0.0,mike,0
64.0,4820.0,4667.69230769,4688.20512821,4400.0,4658.97435897,4103.07692308,4715.8974359,4772.82051282,4658.97435897,4822.56410256,4477.43589744,4631.79487179,4448.71794872,4361.53846154,1696.0,1664.0,11.937,0.0,0.0,0.0,0.0,mike,0
65.0,4817.94871795,4676.92307692,4689.23076923,4401.53846154,4647.17948718,4103.58974359,4718.97435897,4774.87179487,4666.15384615,4829.23076923,4477.43589744,4636.92307692,4454.35897436,4360.51282051,1697.0,1663.0,11.945,0.0,0.0,0.0,0.0,mike,0
66.0,4810.25641026,4669.23076923,4674.35897436,4394.87179487,4649.23076923,4094.87179487,4701.53846154,4764.1025641,4656.41025641,4820.0,4475.8974359,4625.64102564,4448.71794872,4352.30769231,1695.0,1663.0,11.953,0.0,0.0,0.0,0.0,mike,0
67.0,4810.25641026,4662.05128205,4666.66666667,4388.71794872,4649.23076923,4088.71794872,4689.74358974,4758.97435897,4646.15384615,4811.28205128,4467.17948718,4618.97435897,4440.0,4348.20512821,1696.0,1663.0,11.961,0.0,0.0,0.0,0.0,mike,0
68.0,4814.35897436,4663.07692308,4671.28205128,4389.74358974,4627.17948718,4090.76923077,4695.8974359,4754.87179487,4647.17948718,4815.38461538,4457.43589744,4620.0,4438.46153846,4349.23076923,1695.0,1664.0,11.968,0.0,0.0,0.0,0.0,mike,0
69.0,4808.20512821,4662.56410256,4676.41025641,4390.76923077,4622.05128205,4089.74358974,4695.38461538,4749.74358974,4646.66666667,4815.38461538,4461.53846154,4618.97435897,4438.46153846,4342.56410256,1696.0,1664.0,11.976,0.0,0.0,0.0,0.0,mike,0
70.0,4798.97435897,4665.12820513,4672.82051282,4392.30769231,4649.23076923,4091.79487179,4692.82051282,4756.92307692,4644.61538462,4810.76923077,4471.79487179,4622.05128205,4440.51282051,4340.51282051,1695.0,1664.0,11.984,0.0,0.0,0.0,0.0,mike,0
71.0,4807.69230769,4675.38461538,4674.87179487,4398.46153846,4668.71794872,4105.12820513,4711.79487179,4769.23076923,4653.84615385,4818.97435897,4475.8974359,4626.66666667,4446.66666667,4357.43589744,1695.0,1664.0,11.992,0.0,0.0,0.0,0.0,mike,0
72.0,4817.94871795,4677.94871795,4682.05128205,4401.02564103,4653.33333333,4109.23076923,4719.48717949,4768.20512821,4658.97435897,4823.58974359,4472.82051282,4622.56410256,4446.15384615,4368.20512821,1694.0,1664.0,12.0,0.0,0.0,0.0,0.0,mike,0
73.0,4812.82051282,4669.23076923,4674.35897436,4398.46153846,4635.38461538,4096.41025641,4701.02564103,4762.56410256,4649.74358974,4814.87179487,4469.74358974,4616.41025641,4441.53846154,4353.84615385,1694.0,1664.0,12.007,0.0,0.0,0.0,0.0,mike,0
74.0,4811.28205128,4663.58974359,4665.12820513,4397.43589744,4640.0,4089.74358974,4695.38461538,4765.12820513,4647.17948718,4811.79487179,4472.30769231,4616.41025641,4443.07692308,4341.53846154,1693.0,1662.0,12.015,0.0,0.0,0.0,0.0,mike,0
75.0,4811.79487179,4665.12820513,4668.20512821,4396.41025641,4647.69230769,4094.35897436,4702.05128205,4767.17948718,4652.30769231,4817.43589744,4471.28205128,4616.92307692,4446.15384615,4345.64102564,1692.0,1663.0,12.023,0.0,0.0,0.0,0.0,mike,0
76.0,4798.97435897,4662.56410256,4669.23076923,4392.82051282,4629.74358974,4088.20512821,4687.69230769,4756.41025641,4646.15384615,4810.25641026,4462.05128205,4610.25641026,4435.8974359,4337.43589744,1694.0,1663.0,12.031,0.0,0.0,0.0,0.0,mike,0
77.0,4794.35897436,4659.48717949,4661.02564103,4389.74358974,4613.33333333,4078.46153846,4675.8974359,4744.1025641,4635.8974359,4801.53846154,4455.38461538,4606.66666667,4427.69230769,4327.17948718,1693.0,1663.0,12.039,0.0,0.0,0.0,0.0,mike,0
78.0,4807.69230769,4663.58974359,4664.61538462,4389.74358974,4634.87179487,4087.17948718,4688.20512821,4756.41025641,4645.12820513,4810.25641026,4463.58974359,4614.87179487,4441.53846154,4342.05128205,1694.0,1662.0,12.047,0.0,0.0,0.0,0.0,mike,0
79.0,4805.12820513,4657.43589744,4668.71794872,4386.15384615,4645.12820513,4091.28205128,4689.23076923,4763.58974359,4648.20512821,4811.28205128,4466.15384615,4613.33333333,4444.61538462,4350.76923077,1693.0,1662.0,12.054,0.0,0.0,0.0,0.0,mike,0
80.0,4790.76923077,4644.1025641,4656.41025641,4382.05128205,4628.71794872,4082.56410256,4677.94871795,4750.76923077,4635.38461538,4803.07692308,4456.41025641,4601.53846154,4430.25641026,4334.87179487,1694.0,1662.0,12.062,0.0,0.0,0.0,0.0,mike,0
81.0,4793.33333333,4651.79487179,4653.84615385,4388.71794872,4634.35897436,4084.1025641,4688.71794872,4755.38461538,4642.05128205,4808.20512821,4463.58974359,4610.76923077,4437.43589744,4338.46153846,1694.0,1661.0,12.07,0.0,0.0,0.0,0.0,mike,0
82.0,4801.02564103,4664.61538462,4664.61538462,4393.84615385,4635.8974359,4091.28205128,4699.48717949,4772.30769231,4661.53846154,4818.46153846,4480.0,4627.17948718,4453.33333333,4355.8974359,1694.0,1661.0,12.078,0.0,0.0,0.0,0.0,mike,0
83.0,4802.05128205,4664.1025641,4667.69230769,4393.33333333,4621.53846154,4086.66666667,4692.30769231,4770.25641026,4654.87179487,4815.38461538,4475.38461538,4623.07692308,4443.07692308,4348.20512821,1694.0,1661.0,12.086,0.0,0.0,0.0,0.0,mike,0
84.0,4801.53846154,4661.53846154,4662.05128205,4391.79487179,4628.20512821,4081.02564103,4683.58974359,4753.33333333,4635.8974359,4807.69230769,4457.94871795,4611.79487179,4429.74358974,4335.38461538,1695.0,1661.0,12.093,0.0,0.0,0.0,0.0,mike,0
85.0,4804.1025641,4665.64102564,4665.64102564,4392.30769231,4640.51282051,4081.53846154,4681.02564103,4745.12820513,4635.38461538,4805.12820513,4458.46153846,4613.84615385,4435.38461538,4343.07692308,1695.0,1661.0,12.101,0.0,0.0,0.0,0.0,mike,0
86.0,4810.76923077,4671.79487179,4674.35897436,4395.38461538,4636.41025641,4087.69230769,4683.58974359,4756.92307692,4644.1025641,4809.74358974,4471.28205128,4621.02564103,4444.1025641,4352.82051282,1695.0,1661.0,12.109,0.0,0.0,0.0,0.0,mike,0
87.0,4814.35897436,4673.84615385,4676.41025641,4398.97435897,4636.41025641,4090.76923077,4684.61538462,4765.12820513,4647.69230769,4815.38461538,4474.87179487,4620.0,4445.12820513,4351.79487179,1695.0,1661.0,12.117,0.0,0.0,0.0,0.0,mike,0
88.0,4810.76923077,4671.79487179,4672.82051282,4396.92307692,4641.02564103,4084.1025641,4680.51282051,4755.8974359,4646.15384615,4812.30769231,4471.79487179,4616.92307692,4443.07692308,4349.74358974,1695.0,1661.0,12.125,0.0,0.0,0.0,0.0,mike,0
89.0,4810.25641026,4671.79487179,4669.74358974,4393.33333333,4637.43589744,4082.56410256,4681.02564103,4756.41025641,4647.17948718,4810.25641026,4475.38461538,4622.05128205,4444.61538462,4346.66666667,1695.0,1662.0,12.133,0.0,0.0,0.0,0.0,mike,0
90.0,4813.33333333,4673.84615385,4670.76923077,4397.94871795,4629.23076923,4091.79487179,4686.15384615,4768.20512821,4652.30769231,4817.43589744,4476.41025641,4623.58974359,4447.69230769,4345.12820513,1696.0,1663.0,12.14,0.0,0.0,0.0,0.0,mike,0
91.0,4805.12820513,4666.15384615,4665.64102564,4395.38461538,4627.69230769,4087.17948718,4680.51282051,4760.51282051,4645.12820513,4812.82051282,4462.56410256,4608.71794872,4439.48717949,4343.58974359,1695.0,1662.0,12.148,0.0,0.0,0.0,0.0,mike,0
92.0,4792.82051282,4653.33333333,4655.8974359,4385.12820513,4629.74358974,4074.35897436,4670.25641026,4746.66666667,4631.79487179,4797.43589744,4452.82051282,4596.92307692,4425.64102564,4330.76923077,1696.0,1663.0,12.156,0.0,0.0,0.0,0.0,mike,0
93.0,4792.82051282,4656.41025641,4658.97435897,4386.15384615,4630.25641026,4080.51282051,4671.28205128,4752.30769231,4635.38461538,4795.38461538,4457.43589744,4601.53846154,4423.58974359,4322.56410256,1695.0,1661.0,12.164,0.0,0.0,0.0,0.0,mike,0
94.0,4799.48717949,4665.12820513,4666.66666667,4392.82051282,4628.71794872,4093.84615385,4674.35897436,4757.43589744,4643.07692308,4803.58974359,4458.46153846,4605.12820513,4429.23076923,4331.79487179,1695.0,1663.0,12.172,0.0,0.0,0.0,0.0,mike,0
95.0,4801.02564103,4660.0,4663.07692308,4389.23076923,4631.28205128,4092.30769231,4673.33333333,4751.28205128,4640.0,4799.48717949,4456.92307692,4601.02564103,4428.20512821,4333.33333333,1696.0,1662.0,12.18,0.0,0.0,0.0,0.0,mike,0
96.0,4796.92307692,4654.87179487,4656.92307692,4381.02564103,4640.51282051,4085.12820513,4670.25641026,4747.69230769,4640.0,4796.92307692,4460.0,4598.97435897,4428.20512821,4324.61538462,1694.0,1662.0,12.187,0.0,0.0,0.0,0.0,mike,0
97.0,4793.84615385,4661.02564103,4657.43589744,4382.05128205,4629.74358974,4081.02564103,4664.1025641,4750.76923077,4642.05128205,4804.1025641,4461.02564103,4601.53846154,4435.8974359,4329.74358974,1696.0,1662.0,12.195,0.0,0.0,0.0,0.0,mike,0
98.0,4795.8974359,4662.56410256,4656.92307692,4387.17948718,4605.64102564,4074.35897436,4656.92307692,4750.76923077,4634.35897436,4801.53846154,4461.02564103,4602.56410256,4434.35897436,4338.97435897,1695.0,1663.0,12.203,0.0,0.0,0.0,0.0,mike,0
99.0,4796.41025641,4657.94871795,4658.97435897,4386.15384615,4617.43589744,4075.38461538,4658.97435897,4750.25641026,4632.30769231,4800.51282051,4460.51282051,4603.58974359,4429.23076923,4339.48717949,1695.0,1663.0,12.211,0.0,0.0,0.0,0.0,mike,0
100.0,4795.38461538,4661.02564103,4666.66666667,4387.69230769,4649.74358974,4088.20512821,4671.79487179,4759.48717949,4643.58974359,4811.79487179,4461.53846154,4610.76923077,4435.8974359,4340.51282051,1694.0,1663.0,12.219,0.0,0.0,0.0,0.0,mike,0
101.0,4802.56410256,4664.1025641,4667.17948718,4393.84615385,4646.15384615,4092.82051282,4677.43589744,4767.69230769,4650.76923077,4814.87179487,4465.64102564,4615.8974359,4443.58974359,4343.58974359,1695.0,1663.0,12.226,0.0,0.0,0.0,0.0,mike,0
102.0,4809.23076923,4663.07692308,4661.53846154,4392.30769231,4628.71794872,4088.20512821,4674.35897436,4764.1025641,4646.66666667,4810.25641026,4466.66666667,4611.28205128,4440.0,4342.56410256,1694.0,1663.0,12.234,0.0,0.0,0.0,0.0,mike,0
103.0,4801.53846154,4662.56410256,4660.0,4385.12820513,4635.8974359,4088.71794872,4672.82051282,4760.51282051,4641.02564103,4811.28205128,4468.71794872,4608.71794872,4437.94871795,4340.51282051,1694.0,1663.0,12.242,0.0,0.0,0.0,0.0,mike,0
104.0,4792.82051282,4662.05128205,4660.51282051,4385.12820513,4643.58974359,4090.25641026,4671.28205128,4766.15384615,4644.61538462,4813.84615385,4474.87179487,4613.84615385,4444.61538462,4335.8974359,1694.0,1663.0,12.25,0.0,0.0,0.0,0.0,mike,0
105.0,4793.84615385,4657.94871795,4655.38461538,4383.07692308,4628.20512821,4078.97435897,4658.97435897,4765.12820513,4645.64102564,4810.76923077,4472.82051282,4610.25641026,4441.53846154,4335.8974359,1694.0,1664.0,12.258,0.0,0.0,0.0,0.0,mike,0
106.0,4794.35897436,4652.82051282,4654.87179487,4376.41025641,4610.25641026,4063.58974359,4646.66666667,4752.30769231,4635.8974359,4808.71794872,4458.46153846,4602.56410256,4430.25641026,4340.0,1696.0,1662.0,12.266,0.0,0.0,0.0,0.0,mike,0
107.0,4794.87179487,4657.94871795,4663.07692308,4384.61538462,4621.53846154,4070.76923077,4652.82051282,4747.69230769,4634.87179487,4809.74358974,4459.48717949,4606.15384615,4432.30769231,4341.02564103,1694.0,1662.0,12.273,0.0,0.0,0.0,0.0,mike,0
108.0,4800.51282051,4666.15384615,4667.17948718,4395.38461538,4647.69230769,4090.76923077,4661.02564103,4753.84615385,4644.1025641,4811.28205128,4472.30769231,4612.30769231,4441.53846154,4341.53846154,1695.0,1664.0,12.281,0.0,0.0,0.0,0.0,mike,0
109.0,4797.94871795,4658.97435897,4655.38461538,4387.69230769,4637.94871795,4084.1025641,4654.35897436,4749.74358974,4640.0,4805.64102564,4467.17948718,4604.61538462,4436.41025641,4340.0,1695.0,1662.0,12.289,0.0,0.0,0.0,0.0,mike,0
110.0,4781.53846154,4644.1025641,4635.38461538,4372.82051282,4609.23076923,4062.05128205,4642.56410256,4733.33333333,4624.61538462,4793.84615385,4448.71794872,4588.20512821,4417.43589744,4325.12820513,1695.0,1663.0,12.297,0.0,0.0,0.0,0.0,mike,0
111.0,4772.82051282,4641.53846154,4633.84615385,4371.28205128,4610.76923077,4064.1025641,4642.05128205,4732.82051282,4621.53846154,4790.25641026,4445.12820513,4585.12820513,4410.76923077,4313.33333333,1695.0,1662.0,12.305,0.0,0.0,0.0,0.0,mike,0
112.0,4789.74358974,4648.20512821,4656.41025641,4381.53846154,4627.17948718,4080.0,4654.35897436,4754.87179487,4634.35897436,4802.05128205,4465.12820513,4602.05128205,4430.25641026,4330.76923077,1695.0,1662.0,12.312,0.0,0.0,0.0,0.0,mike,0
113.0,4803.07692308,4650.76923077,4669.74358974,4385.64102564,4623.58974359,4082.05128205,4661.02564103,4768.71794872,4645.12820513,4815.8974359,4474.35897436,4615.8974359,4447.69230769,4349.74358974,1695.0,1662.0,12.32,0.0,0.0,0.0,0.0,mike,0
114.0,4791.28205128,4649.23076923,4654.35897436,4381.02564103,4612.82051282,4073.84615385,4652.82051282,4756.41025641,4643.58974359,4812.30769231,4462.05128205,4608.20512821,4436.41025641,4340.0,1695.0,1663.0,12.328,0.0,0.0,0.0,0.0,mike,0
115.0,4783.07692308,4647.69230769,4643.58974359,4378.97435897,4624.61538462,4073.33333333,4645.64102564,4748.71794872,4637.94871795,4801.02564103,4454.87179487,4600.0,4424.61538462,4330.25641026,1696.0,1662.0,12.336,0.0,0.0,0.0,0.0,mike,0
116.0,4789.23076923,4650.76923077,4650.25641026,4385.12820513,4636.41025641,4079.48717949,4651.28205128,4754.35897436,4639.48717949,4800.51282051,4463.07692308,4603.07692308,4433.33333333,4338.97435897,1694.0,1663.0,12.344,0.0,0.0,0.0,0.0,mike,0
117.0,4784.61538462,4650.25641026,4648.71794872,4384.1025641,4626.15384615,4076.92307692,4649.74358974,4745.64102564,4635.8974359,4799.48717949,4461.53846154,4594.87179487,4428.20512821,4332.30769231,1696.0,1663.0,12.352,0.0,0.0,0.0,0.0,mike,0
118.0,4775.8974359,4637.94871795,4640.0,4371.28205128,4612.82051282,4065.12820513,4636.41025641,4729.74358974,4621.02564103,4792.82051282,4445.12820513,4583.58974359,4409.74358974,4310.25641026,1694.0,1663.0,12.359,0.0,0.0,0.0,0.0,mike,0
119.0,4781.02564103,4633.84615385,4641.53846154,4369.74358974,4604.1025641,4057.94871795,4629.74358974,4729.23076923,4616.41025641,4794.35897436,4444.61538462,4585.64102564,4412.30769231,4311.79487179,1696.0,1664.0,12.367,0.0,0.0,0.0,0.0,mike,0
120.0,4784.1025641,4645.12820513,4644.61538462,4377.43589744,4605.12820513,4061.53846154,4631.79487179,4733.84615385,4624.61538462,4795.8974359,4456.92307692,4587.69230769,4422.56410256,4324.1025641,1695.0,1663.0,12.375,0.0,0.0,0.0,0.0,mike,0
121.0,4779.48717949,4651.79487179,4641.53846154,4378.97435897,4624.1025641,4072.30769231,4638.97435897,4741.02564103,4630.76923077,4795.8974359,4460.51282051,4582.56410256,4422.56410256,4328.71794872,1694.0,1665.0,12.383,0.0,0.0,0.0,0.0,mike,0
122.0,4780.0,4647.17948718,4641.02564103,4374.87179487,4627.69230769,4076.92307692,4644.61538462,4750.25641026,4630.76923077,4798.97435897,4456.92307692,4586.15384615,4420.0,4327.69230769,1695.0,1663.0,12.391,0.0,0.0,0.0,0.0,mike,0
123.0,4783.58974359,4647.69230769,4646.15384615,4374.87179487,4612.82051282,4073.33333333,4648.71794872,4751.28205128,4632.82051282,4800.51282051,4457.94871795,4594.35897436,4419.48717949,4319.48717949,1694.0,1663.0,12.398,0.0,0.0,0.0,0.0,mike,0
124.0,4786.15384615,4653.84615385,4652.82051282,4380.0,4616.41025641,4070.76923077,4650.76923077,4748.71794872,4635.38461538,4800.0,4458.97435897,4595.38461538,4420.0,4316.92307692,1694.0,1663.0,12.406,0.0,0.0,0.0,0.0,mike,0
125.0,4780.51282051,4642.05128205,4645.12820513,4373.84615385,4625.64102564,4064.1025641,4641.53846154,4737.94871795,4623.07692308,4789.23076923,4446.66666667,4581.02564103,4409.23076923,4312.82051282,1694.0,1664.0,12.414,0.0,0.0,0.0,0.0,mike,0
126.0,4765.12820513,4618.46153846,4623.07692308,4360.0,4608.71794872,4050.76923077,4627.69230769,4719.48717949,4603.07692308,4768.71794872,4424.61538462,4557.43589744,4384.61538462,4290.76923077,1695.0,1662.0,12.422,0.0,0.0,0.0,0.0,mike,0
127.0,4751.28205128,4610.76923077,4610.25641026,4355.38461538,4587.69230769,4051.79487179,4624.61538462,4712.82051282,4596.41025641,4760.51282051,4409.23076923,4548.20512821,4370.25641026,4271.79487179,1694.0,1663.0,12.43,0.0,0.0,0.0,0.0,mike,0
128.0,4746.15384615,4615.38461538,4609.23076923,4357.94871795,4586.66666667,4060.0,4625.64102564,4716.41025641,4600.0,4762.05128205,4412.82051282,4549.74358974,4373.33333333,4277.94871795,1695.0,1663.0,12.438,0.0,0.0,0.0,0.0,mike,0
0.0,4747.17948718,4617.43589744,4614.35897436,4356.41025641,4606.15384615,4058.97435897,4624.1025641,4716.41025641,4604.61538462,4766.15384615,4425.12820513,4551.79487179,4384.1025641,4295.38461538,1694.0,1662.0,12.445,0.0,0.0,0.0,0.0,mike,0
1.0,4761.53846154,4630.25641026,4629.23076923,4364.61538462,4620.0,4058.46153846,4627.17948718,4724.1025641,4618.46153846,4782.05128205,4438.46153846,4570.76923077,4402.05128205,4308.20512821,1694.0,1663.0,12.453,0.0,0.0,0.0,0.0,mike,0
2.0,4781.53846154,4649.23076923,4643.58974359,4381.02564103,4617.94871795,4063.07692308,4636.41025641,4743.58974359,4634.35897436,4799.48717949,4451.79487179,4596.41025641,4422.05128205,4319.48717949,1694.0,1662.0,12.461,0.0,0.0,0.0,0.0,mike,0
3.0,4785.64102564,4648.20512821,4641.53846154,4380.0,4608.71794872,4062.56410256,4641.02564103,4754.35897436,4637.43589744,4799.48717949,4456.92307692,4596.41025641,4425.64102564,4329.23076923,1694.0,1664.0,12.469,0.0,0.0,0.0,0.0,mike,0
4.0,4782.56410256,4639.48717949,4633.33333333,4372.30769231,4604.1025641,4063.58974359,4639.48717949,4745.12820513,4630.76923077,4794.87179487,4457.43589744,4585.64102564,4418.46153846,4328.71794872,1695.0,1663.0,12.477,0.0,0.0,0.0,0.0,mike,0
5.0,4776.92307692,4642.05128205,4632.82051282,4371.28205128,4613.33333333,4068.71794872,4638.46153846,4732.30769231,4622.56410256,4794.87179487,4453.33333333,4586.15384615,4413.33333333,4317.94871795,1694.0,1664.0,12.485,0.0,0.0,0.0,0.0,mike,0
6.0,4769.74358974,4641.02564103,4636.41025641,4370.76923077,4620.0,4064.1025641,4638.97435897,4734.35897436,4621.53846154,4792.30769231,4450.25641026,4586.15384615,4413.33333333,4315.8974359,1695.0,1663.0,12.492,0.0,0.0,0.0,0.0,mike,0
7.0,4774.87179487,4642.05128205,4644.1025641,4376.92307692,4621.53846154,4065.12820513,4645.12820513,4749.74358974,4632.82051282,4795.38461538,4455.8974359,4586.15384615,4423.58974359,4329.23076923,1695.0,1662.0,12.5,0.0,0.0,0.0,0.0,mike,0
8.0,4786.15384615,4651.28205128,4645.64102564,4382.56410256,4625.12820513,4073.84615385,4649.74358974,4754.35897436,4637.43589744,4800.51282051,4455.38461538,4591.28205128,4426.15384615,4331.28205128,1696.0,1660.0,12.508,0.0,0.0,0.0,0.0,mike,0
9.0,4783.07692308,4642.56410256,4635.38461538,4371.79487179,4612.82051282,4062.56410256,4635.8974359,4740.0,4627.17948718,4792.30769231,4442.56410256,4585.12820513,4408.20512821,4314.87179487,1695.0,1661.0,12.516,0.0,0.0,0.0,0.0,mike,0
10.0,4775.38461538,4627.69230769,4631.79487179,4366.66666667,4596.92307692,4049.23076923,4623.07692308,4730.25641026,4622.05128205,4783.07692308,4441.53846154,4575.8974359,4399.48717949,4305.12820513,1695.0,1662.0,12.524,0.0,0.0,0.0,0.0,mike,0
11.0,4782.56410256,4638.97435897,4645.12820513,4379.48717949,4617.94871795,4066.15384615,4636.92307692,4741.53846154,4633.33333333,4793.33333333,4458.46153846,4588.20512821,4416.41025641,4317.94871795,1694.0,1663.0,12.531,0.0,0.0,0.0,0.0,mike,0
12.0,4795.38461538,4655.8974359,4659.48717949,4386.66666667,4644.1025641,4082.05128205,4653.33333333,4759.48717949,4649.23076923,4809.74358974,4471.79487179,4606.66666667,4433.33333333,4336.41025641,1695.0,1663.0,12.539,0.0,0.0,0.0,0.0,mike,0
13.0,4798.97435897,4650.25641026,4658.46153846,4381.53846154,4623.07692308,4074.87179487,4649.23076923,4760.0,4649.23076923,4804.61538462,4471.79487179,4606.66666667,4430.25641026,4339.48717949,1694.0,1664.0,12.547,0.0,0.0,0.0,0.0,mike,0
14.0,4797.43589744,4646.15384615,4652.82051282,4380.51282051,4606.66666667,4071.79487179,4645.64102564,4749.74358974,4634.87179487,4792.82051282,4463.58974359,4599.48717949,4418.97435897,4332.30769231,1694.0,1663.0,12.555,0.0,0.0,0.0,0.0,mike,0
15.0,4798.97435897,4654.35897436,4655.38461538,4383.58974359,4619.48717949,4076.41025641,4648.71794872,4747.17948718,4628.71794872,4792.30769231,4456.92307692,4598.97435897,4412.30769231,4328.20512821,1693.0,1665.0,12.563,0.0,0.0,0.0,0.0,mike,0
16.0,4798.46153846,4653.33333333,4658.97435897,4382.56410256,4629.23076923,4075.38461538,4649.74358974,4748.71794872,4631.79487179,4795.8974359,4458.97435897,4599.48717949,4412.82051282,4326.15384615,1694.0,1664.0,12.57,0.0,0.0,0.0,0.0,mike,0
17.0,4794.87179487,4647.17948718,4655.38461538,4381.53846154,4632.30769231,4075.38461538,4649.74358974,4754.87179487,4635.8974359,4794.87179487,4462.05128205,4600.51282051,4418.46153846,4329.74358974,1693.0,1666.0,12.578,0.0,0.0,0.0,0.0,mike,0
18.0,4796.92307692,4646.66666667,4650.25641026,4380.0,4626.66666667,4074.87179487,4649.74358974,4761.02564103,4638.97435897,4793.84615385,4461.53846154,4603.58974359,4425.12820513,4335.8974359,1694.0,1665.0,12.586,0.0,0.0,0.0,0.0,mike,0
19.0,4798.97435897,4648.71794872,4648.20512821,4379.48717949,4617.43589744,4073.84615385,4647.17948718,4755.8974359,4641.02564103,4796.92307692,4462.56410256,4603.58974359,4425.64102564,4333.84615385,1693.0,1664.0,12.594,0.0,0.0,0.0,0.0,mike,0
20.0,4804.61538462,4651.28205128,4649.74358974,4382.56410256,4623.07692308,4075.8974359,4642.56410256,4748.71794872,4638.97435897,4798.97435897,4463.07692308,4602.56410256,4425.12820513,4333.33333333,1694.0,1665.0,12.602,0.0,0.0,0.0,0.0,mike,0
21.0,4813.84615385,4660.51282051,4653.84615385,4386.66666667,4636.92307692,4074.87179487,4637.94871795,4745.12820513,4633.84615385,4798.46153846,4461.53846154,4601.02564103,4428.20512821,4342.05128205,1694.0,1664.0,12.61,0.0,0.0,0.0,0.0,mike,0
22.0,4814.35897436,4661.53846154,4658.46153846,4385.12820513,4633.84615385,4068.71794872,4635.8974359,4740.0,4630.76923077,4796.92307692,4457.94871795,4600.51282051,4428.71794872,4339.48717949,1694.0,1665.0,12.617,0.0,0.0,0.0,0.0,mike,0
23.0,4811.79487179,4654.35897436,4662.05128205,4383.58974359,4626.15384615,4068.71794872,4648.71794872,4740.51282051,4633.84615385,4798.97435897,4456.92307692,4602.56410256,4425.12820513,4326.66666667,1694.0,1664.0,12.625,0.0,0.0,0.0,0.0,mike,0
24.0,4814.87179487,4661.53846154,4666.66666667,4392.30769231,4635.8974359,4081.53846154,4669.74358974,4753.33333333,4643.07692308,4802.05128205,4462.56410256,4605.12820513,4427.69230769,4330.76923077,1694.0,1664.0,12.633,0.0,0.0,0.0,0.0,mike,0
25.0,4815.38461538,4672.30769231,4665.64102564,4397.43589744,4640.0,4087.17948718,4676.92307692,4756.41025641,4645.12820513,4800.0,4463.07692308,4605.12820513,4431.28205128,4340.0,1694.0,1664.0,12.641,0.0,0.0,0.0,0.0,mike,0
26.0,4811.79487179,4668.20512821,4658.97435897,4388.20512821,4630.76923077,4085.64102564,4675.8974359,4749.74358974,4638.46153846,4796.92307692,4457.43589744,4601.53846154,4423.07692308,4330.76923077,1695.0,1664.0,12.649,0.0,0.0,0.0,0.0,mike,0
27.0,4814.35897436,4658.46153846,4656.92307692,4380.0,4628.71794872,4087.17948718,4684.1025641,4752.30769231,4637.43589744,4797.43589744,4457.94871795,4597.94871795,4415.38461538,4325.64102564,1695.0,1664.0,12.657,0.0,0.0,0.0,0.0,mike,0
28.0,4812.82051282,4649.74358974,4653.33333333,4383.07692308,4636.41025641,4085.64102564,4689.74358974,4751.79487179,4635.38461538,4792.82051282,4455.8974359,4591.79487179,4413.33333333,4326.66666667,1694.0,1664.0,12.664,0.0,0.0,0.0,0.0,mike,0
29.0,4799.48717949,4639.48717949,4644.61538462,4383.58974359,4632.30769231,4076.41025641,4680.51282051,4737.94871795,4623.07692308,4781.53846154,4443.58974359,4577.94871795,4407.69230769,4311.28205128,1695.0,1664.0,12.673,0.0,0.0,0.0,0.0,mike,0
30.0,4790.76923077,4641.53846154,4641.02564103,4376.41025641,4628.71794872,4074.87179487,4676.41025641,4733.33333333,4618.46153846,4777.43589744,4440.0,4569.23076923,4401.02564103,4302.56410256,1694.0,1662.0,12.68,0.0,0.0,0.0,0.0,mike,0
31.0,4791.28205128,4647.17948718,4641.02564103,4374.35897436,4631.28205128,4077.43589744,4682.56410256,4743.58974359,4627.17948718,4778.97435897,4443.07692308,4575.8974359,4401.53846154,4309.23076923,1696.0,1663.0,12.688,0.0,0.0,0.0,0.0,mike,0
32.0,4791.28205128,4646.66666667,4642.56410256,4380.0,4624.1025641,4074.87179487,4688.20512821,4751.28205128,4633.33333333,4782.56410256,4441.53846154,4583.58974359,4406.15384615,4313.33333333,1696.0,1662.0,12.696,0.0,0.0,0.0,0.0,mike,0
33.0,4799.48717949,4651.28205128,4647.69230769,4383.58974359,4628.20512821,4079.48717949,4691.79487179,4756.41025641,4636.92307692,4793.33333333,4448.20512821,4588.20512821,4412.30769231,4317.94871795,1695.0,1662.0,12.703,0.0,0.0,0.0,0.0,mike,0
34.0,4811.28205128,4656.41025641,4649.23076923,4382.56410256,4636.92307692,4084.61538462,4690.76923077,4765.12820513,4643.07692308,4800.51282051,4460.51282051,4595.38461538,4420.0,4325.64102564,1696.0,1661.0,12.711,0.0,0.0,0.0,0.0,mike,0
35.0,4812.82051282,4658.46153846,4652.82051282,4382.56410256,4630.76923077,4082.56410256,4686.66666667,4768.20512821,4648.20512821,4796.41025641,4462.56410256,4601.53846154,4427.17948718,4327.17948718,1695.0,1662.0,12.719,0.0,0.0,0.0,0.0,mike,0
36.0,4814.35897436,4661.02564103,4662.56410256,4386.15384615,4632.30769231,4081.53846154,4690.76923077,4770.76923077,4651.28205128,4802.05128205,4464.61538462,4604.61538462,4432.82051282,4334.87179487,1695.0,1662.0,12.727,0.0,0.0,0.0,0.0,mike,0
37.0,4814.35897436,4656.92307692,4659.48717949,4387.17948718,4638.97435897,4078.46153846,4690.25641026,4766.66666667,4647.17948718,4805.12820513,4464.61538462,4602.56410256,4428.71794872,4335.8974359,1695.0,1662.0,12.735,0.0,0.0,0.0,0.0,mike,0
38.0,4797.43589744,4645.12820513,4644.1025641,4379.48717949,4624.1025641,4071.79487179,4673.84615385,4747.69230769,4632.30769231,4788.20512821,4450.76923077,4590.25641026,4413.33333333,4315.8974359,1695.0,1662.0,12.743,0.0,0.0,0.0,0.0,mike,0
39.0,4790.25641026,4644.1025641,4641.53846154,4374.35897436,4611.28205128,4070.76923077,4666.66666667,4737.94871795,4623.58974359,4778.46153846,4440.0,4580.0,4407.69230769,4308.20512821,1694.0,1663.0,12.75,0.0,0.0,0.0,0.0,mike,0
40.0,4807.69230769,4651.79487179,4648.20512821,4377.94871795,4623.58974359,4073.84615385,4672.82051282,4749.23076923,4630.76923077,4789.74358974,4446.66666667,4588.20512821,4416.92307692,4325.12820513,1695.0,1662.0,12.758,0.0,0.0,0.0,0.0,mike,0
41.0,4817.94871795,4663.07692308,4653.33333333,4387.69230769,4631.79487179,4073.33333333,4677.43589744,4764.1025641,4645.64102564,4806.66666667,4463.07692308,4602.05128205,4429.23076923,4335.8974359,1694.0,1661.0,12.766,0.0,0.0,0.0,0.0,mike,0
42.0,4814.35897436,4675.8974359,4659.48717949,4396.41025641,4634.35897436,4078.46153846,4681.02564103,4767.69230769,4651.28205128,4812.82051282,4472.30769231,4605.64102564,4433.84615385,4336.41025641,1695.0,1663.0,12.774,0.0,0.0,0.0,0.0,mike,0
43.0,4814.87179487,4669.74358974,4661.53846154,4392.30769231,4632.30769231,4081.02564103,4674.87179487,4758.46153846,4641.53846154,4804.1025641,4465.12820513,4603.58974359,4430.76923077,4334.87179487,1695.0,1661.0,12.782,0.0,0.0,0.0,0.0,mike,0
44.0,4816.41025641,4653.84615385,4656.92307692,4380.51282051,4615.38461538,4068.71794872,4662.05128205,4748.71794872,4630.76923077,4794.87179487,4455.8974359,4598.97435897,4426.15384615,4328.71794872,1694.0,1663.0,12.789,0.0,0.0,0.0,0.0,mike,0
45.0,4808.71794872,4656.92307692,4650.76923077,4380.51282051,4615.38461538,4065.12820513,4662.05128205,4750.25641026,4633.84615385,4796.92307692,4460.51282051,4594.87179487,4426.15384615,4322.56410256,1696.0,1662.0,12.797,0.0,0.0,0.0,0.0,mike,0
46.0,4803.07692308,4665.64102564,4649.23076923,4388.20512821,4635.8974359,4075.8974359,4672.82051282,4752.30769231,4639.48717949,4800.51282051,4461.53846154,4590.76923077,4426.66666667,4326.66666667,1695.0,1662.0,12.805,0.0,0.0,0.0,0.0,mike,0
47.0,4809.23076923,4662.56410256,4654.87179487,4386.66666667,4640.0,4077.94871795,4673.84615385,4749.74358974,4637.43589744,4797.43589744,4455.38461538,4587.69230769,4425.64102564,4327.69230769,1696.0,1662.0,12.813,0.0,0.0,0.0,0.0,mike,0
48.0,4813.33333333,4662.56410256,4658.97435897,4383.07692308,4629.74358974,4073.33333333,4668.71794872,4751.28205128,4634.35897436,4796.92307692,4455.38461538,4592.82051282,4427.17948718,4319.48717949,1695.0,1661.0,12.821,0.0,0.0,0.0,0.0,mike,0
49.0,4802.56410256,4663.58974359,4652.82051282,4383.58974359,4631.79487179,4077.43589744,4665.64102564,4752.30769231,4634.35897436,4799.48717949,4458.46153846,4594.87179487,4426.66666667,4320.0,1695.0,1662.0,12.829,0.0,0.0,0.0,0.0,mike,0
50.0,4797.43589744,4653.33333333,4645.12820513,4381.53846154,4628.20512821,4077.43589744,4663.07692308,4747.17948718,4632.30769231,4796.92307692,4457.94871795,4588.20512821,4420.51282051,4326.66666667,1696.0,1662.0,12.836,0.0,0.0,0.0,0.0,mike,0
51.0,4807.17948718,4648.71794872,4645.64102564,4378.97435897,4613.84615385,4067.17948718,4663.07692308,4749.74358974,4633.33333333,4794.87179487,4458.97435897,4591.28205128,4423.07692308,4328.71794872,1696.0,1662.0,12.845,0.0,0.0,0.0,0.0,mike,0
52.0,4814.35897436,4662.05128205,4653.33333333,4382.05128205,4618.46153846,4068.20512821,4666.15384615,4763.07692308,4644.1025641,4804.61538462,4463.07692308,4603.58974359,4435.8974359,4331.28205128,1696.0,1662.0,12.852,0.0,0.0,0.0,0.0,mike,0
53.0,4812.82051282,4668.20512821,4660.51282051,4384.61538462,4631.79487179,4078.46153846,4666.66666667,4770.25641026,4649.74358974,4810.25641026,4463.58974359,4603.58974359,4437.43589744,4336.41025641,1697.0,1663.0,12.86,0.0,0.0,0.0,0.0,mike,0
54.0,4809.74358974,4660.51282051,4657.43589744,4381.53846154,4636.41025641,4078.46153846,4662.05128205,4764.1025641,4641.53846154,4801.02564103,4460.51282051,4597.43589744,4426.66666667,4336.92307692,1697.0,1662.0,12.868,0.0,0.0,0.0,0.0,mike,0
55.0,4809.74358974,4659.48717949,4652.82051282,4380.51282051,4630.25641026,4067.17948718,4658.46153846,4761.53846154,4637.43589744,4795.38461538,4456.92307692,4600.0,4422.56410256,4329.74358974,1696.0,1665.0,12.875,0.0,0.0,0.0,0.0,mike,0
56.0,4811.28205128,4664.61538462,4657.94871795,4382.05128205,4615.8974359,4063.58974359,4658.46153846,4763.58974359,4643.58974359,4800.0,4459.48717949,4603.58974359,4428.20512821,4329.23076923,1697.0,1664.0,12.883,0.0,0.0,0.0,0.0,mike,0
57.0,4814.35897436,4669.74358974,4665.64102564,4383.07692308,4617.43589744,4070.25641026,4658.97435897,4762.05128205,4646.15384615,4801.53846154,4470.25641026,4605.12820513,4431.28205128,4338.46153846,1696.0,1664.0,12.891,0.0,0.0,0.0,0.0,mike,0
58.0,4815.8974359,4672.82051282,4666.66666667,4391.28205128,4635.8974359,4076.92307692,4663.07692308,4763.58974359,4644.61538462,4798.46153846,4475.8974359,4606.66666667,4430.76923077,4346.15384615,1697.0,1665.0,12.899,0.0,0.0,0.0,0.0,mike,0
59.0,4813.33333333,4672.30769231,4660.51282051,4396.41025641,4644.1025641,4080.0,4670.76923077,4766.15384615,4646.15384615,4804.61538462,4468.71794872,4605.64102564,4429.74358974,4339.48717949,1696.0,1664.0,12.907,0.0,0.0,0.0,0.0,mike,0
60.0,4809.23076923,4670.25641026,4658.97435897,4388.20512821,4641.53846154,4080.51282051,4673.33333333,4765.12820513,4648.20512821,4811.79487179,4462.05128205,4604.1025641,4432.30769231,4339.48717949,1695.0,1665.0,12.915,0.0,0.0,0.0,0.0,mike,0
61.0,4810.76923077,4674.35897436,4666.15384615,4383.07692308,4646.66666667,4081.02564103,4672.30769231,4769.74358974,4650.25641026,4813.33333333,4464.1025641,4608.20512821,4433.84615385,4350.76923077,1696.0,1664.0,12.922,0.0,0.0,0.0,0.0,mike,0
62.0,4820.51282051,4680.0,4672.82051282,4390.76923077,4646.66666667,4083.58974359,4675.38461538,4778.46153846,4654.35897436,4811.28205128,4468.20512821,4615.8974359,4431.28205128,4344.61538462,1695.0,1664.0,12.93,0.0,0.0,0.0,0.0,mike,0
63.0,4831.79487179,4680.0,4678.46153846,4396.92307692,4631.28205128,4084.1025641,4675.38461538,4776.41025641,4658.46153846,4813.84615385,4473.33333333,4618.97435897,4435.38461538,4339.48717949,1695.0,1664.0,12.938,0.0,0.0,0.0,0.0,mike,0
64.0,4828.20512821,4676.92307692,4674.87179487,4392.30769231,4623.58974359,4080.0,4670.76923077,4764.1025641,4649.74358974,4810.76923077,4475.8974359,4616.92307692,4439.48717949,4347.69230769,1695.0,1664.0,12.946,0.0,0.0,0.0,0.0,mike,0
65.0,4815.38461538,4673.84615385,4662.56410256,4391.79487179,4630.25641026,4082.56410256,4671.79487179,4759.48717949,4636.41025641,4799.48717949,4473.84615385,4615.8974359,4431.79487179,4350.76923077,1695.0,1664.0,12.954,0.0,0.0,0.0,0.0,mike,0
66.0,4812.82051282,4669.23076923,4663.58974359,4393.84615385,4636.92307692,4085.12820513,4672.82051282,4764.1025641,4637.94871795,4797.94871795,4469.23076923,4613.33333333,4425.64102564,4342.56410256,1694.0,1663.0,12.961,0.0,0.0,0.0,0.0,mike,0
67.0,4816.41025641,4662.56410256,4670.25641026,4384.61538462,4631.28205128,4072.30769231,4663.58974359,4760.0,4642.05128205,4803.58974359,4460.51282051,4606.66666667,4427.17948718,4332.82051282,1694.0,1663.0,12.969,0.0,0.0,0.0,0.0,mike,0
68.0,4812.30769231,4665.12820513,4664.61538462,4381.02564103,4628.20512821,4064.61538462,4658.46153846,4750.25641026,4633.84615385,4801.02564103,4456.41025641,4602.56410256,4427.69230769,4327.69230769,1694.0,1663.0,12.977,0.0,0.0,0.0,0.0,mike,0
69.0,4809.23076923,4668.71794872,4659.48717949,4389.23076923,4635.38461538,4073.33333333,4663.07692308,4751.79487179,4629.74358974,4792.30769231,4462.05128205,4602.05128205,4425.12820513,4331.28205128,1694.0,1662.0,12.985,0.0,0.0,0.0,0.0,mike,0
70.0,4812.82051282,4666.66666667,4664.61538462,4388.71794872,4625.64102564,4078.46153846,4665.64102564,4766.15384615,4641.53846154,4802.05128205,4465.12820513,4604.61538462,4427.69230769,4338.97435897,1694.0,1662.0,12.993,0.0,0.0,0.0,0.0,mike,0
71.0,4814.35897436,4664.61538462,4665.64102564,4379.48717949,4615.8974359,4075.8974359,4666.66666667,4772.82051282,4647.69230769,4812.82051282,4460.0,4605.64102564,4430.25641026,4334.35897436,1694.0,1661.0,13.001,0.0,0.0,0.0,0.0,mike,0
72.0,4810.76923077,4660.51282051,4655.8974359,4380.0,4633.33333333,4075.38461538,4665.12820513,4760.0,4637.94871795,4802.05128205,4458.46153846,4601.02564103,4426.66666667,4327.69230769,1693.0,1662.0,13.008,0.0,0.0,0.0,0.0,mike,0
73.0,4810.25641026,4656.41025641,4646.15384615,4383.07692308,4643.07692308,4076.41025641,4655.38461538,4751.28205128,4636.41025641,4797.94871795,4460.51282051,4597.43589744,4425.12820513,4331.28205128,1693.0,1661.0,13.016,0.0,0.0,0.0,0.0,mike,0
74.0,4814.35897436,4661.02564103,4650.25641026,4383.58974359,4631.79487179,4076.92307692,4657.43589744,4760.51282051,4648.20512821,4812.30769231,4462.56410256,4604.1025641,4430.25641026,4336.92307692,1693.0,1662.0,13.024,0.0,0.0,0.0,0.0,mike,0
75.0,4814.35897436,4668.20512821,4661.02564103,4384.1025641,4633.33333333,4078.97435897,4665.12820513,4769.23076923,4653.33333333,4817.94871795,4464.1025641,4609.23076923,4433.33333333,4340.51282051,1694.0,1662.0,13.032,0.0,0.0,0.0,0.0,mike,0
76.0,4805.64102564,4661.02564103,4656.92307692,4381.02564103,4629.23076923,4076.92307692,4655.38461538,4762.56410256,4643.07692308,4806.66666667,4463.07692308,4604.1025641,4431.28205128,4335.38461538,1692.0,1661.0,13.04,0.0,0.0,0.0,0.0,mike,0
77.0,4799.48717949,4651.28205128,4648.71794872,4381.02564103,4613.33333333,4075.8974359,4648.71794872,4753.33333333,4634.35897436,4800.51282051,4460.51282051,4597.43589744,4426.15384615,4321.02564103,1693.0,1662.0,13.047,0.0,0.0,0.0,0.0,mike,0
78.0,4796.92307692,4648.71794872,4646.66666667,4379.48717949,4617.43589744,4075.8974359,4655.38461538,4750.25641026,4633.33333333,4798.46153846,4457.94871795,4591.79487179,4416.41025641,4309.74358974,1693.0,1661.0,13.055,0.0,0.0,0.0,0.0,mike,0
79.0,4793.33333333,4642.56410256,4640.0,4374.35897436,4622.56410256,4070.25641026,4653.33333333,4754.35897436,4634.35897436,4794.35897436,4453.33333333,4584.61538462,4410.25641026,4316.41025641,1693.0,1661.0,13.063,0.0,0.0,0.0,0.0,mike,0
80.0,4797.43589744,4641.53846154,4642.05128205,4374.35897436,4619.48717949,4071.28205128,4650.25641026,4765.64102564,4640.0,4794.87179487,4456.41025641,4591.79487179,4416.92307692,4330.25641026,1693.0,1661.0,13.071,0.0,0.0,0.0,0.0,mike,0
81.0,4802.56410256,4649.74358974,4649.23076923,4374.87179487,4626.15384615,4074.35897436,4653.84615385,4766.66666667,4641.02564103,4797.94871795,4462.05128205,4602.05128205,4421.53846154,4330.25641026,1693.0,1661.0,13.079,0.0,0.0,0.0,0.0,mike,0
82.0,4794.35897436,4652.82051282,4640.51282051,4372.30769231,4625.12820513,4069.74358974,4649.23076923,4757.43589744,4634.87179487,4797.94871795,4452.30769231,4593.33333333,4414.87179487,4317.94871795,1694.0,1661.0,13.087,0.0,0.0,0.0,0.0,mike,0
83.0,4787.69230769,4646.66666667,4632.82051282,4372.30769231,4608.71794872,4062.05128205,4643.07692308,4753.33333333,4631.79487179,4793.84615385,4446.15384615,4584.1025641,4410.76923077,4310.76923077,1694.0,1662.0,13.094,0.0,0.0,0.0,0.0,mike,0
84.0,4798.97435897,4648.71794872,4644.1025641,4377.94871795,4616.92307692,4062.05128205,4644.61538462,4754.35897436,4635.8974359,4796.92307692,4455.38461538,4593.33333333,4415.38461538,4320.0,1694.0,1661.0,13.102,0.0,0.0,0.0,0.0,mike,0
85.0,4798.46153846,4652.30769231,4650.25641026,4380.51282051,4633.33333333,4065.64102564,4643.07692308,4751.28205128,4634.35897436,4796.41025641,4454.35897436,4597.43589744,4415.8974359,4323.58974359,1693.0,1662.0,13.11,0.0,0.0,0.0,0.0,mike,0
86.0,4779.48717949,4645.12820513,4641.02564103,4377.94871795,4620.0,4067.69230769,4641.02564103,4746.66666667,4623.07692308,4781.53846154,4445.12820513,4585.12820513,4405.12820513,4310.76923077,1694.0,1661.0,13.118,0.0,0.0,0.0,0.0,mike,0
87.0,4786.15384615,4651.28205128,4646.66666667,4377.94871795,4614.35897436,4074.87179487,4645.12820513,4749.74358974,4624.61538462,4781.53846154,4452.82051282,4586.15384615,4404.1025641,4313.33333333,1693.0,1661.0,13.126,0.0,0.0,0.0,0.0,mike,0
88.0,4813.33333333,4667.17948718,4662.05128205,4386.66666667,4635.38461538,4082.05128205,4651.28205128,4757.43589744,4635.8974359,4796.92307692,4459.48717949,4600.0,4415.38461538,4331.79487179,1695.0,1663.0,13.133,0.0,0.0,0.0,0.0,mike,0
89.0,4810.25641026,4660.51282051,4657.43589744,4386.66666667,4635.38461538,4075.38461538,4647.17948718,4753.33333333,4628.71794872,4791.28205128,4446.66666667,4594.35897436,4410.76923077,4320.51282051,1694.0,1662.0,13.141,0.0,0.0,0.0,0.0,mike,0
90.0,4792.30769231,4647.69230769,4649.23076923,4380.0,4614.87179487,4064.61538462,4641.53846154,4743.07692308,4614.35897436,4772.82051282,4438.97435897,4580.51282051,4396.92307692,4301.02564103,1694.0,1662.0,13.149,0.0,0.0,0.0,0.0,mike,0
91.0,4805.12820513,4661.02564103,4660.51282051,4387.69230769,4623.07692308,4075.38461538,4654.35897436,4748.20512821,4624.1025641,4782.05128205,4449.23076923,4590.25641026,4404.61538462,4319.48717949,1695.0,1662.0,13.157,0.0,0.0,0.0,0.0,mike,0
92.0,4816.41025641,4670.76923077,4668.71794872,4392.82051282,4638.46153846,4089.74358974,4665.12820513,4754.87179487,4636.92307692,4797.43589744,4461.02564103,4604.61538462,4417.94871795,4337.43589744,1694.0,1662.0,13.165,0.0,0.0,0.0,0.0,mike,0
93.0,4802.56410256,4653.84615385,4658.46153846,4382.05128205,4628.20512821,4082.05128205,4652.82051282,4749.74358974,4630.76923077,4789.23076923,4459.48717949,4595.38461538,4415.38461538,4323.58974359,1694.0,1662.0,13.173,0.0,0.0,0.0,0.0,mike,0
94.0,4799.48717949,4649.74358974,4649.74358974,4377.43589744,4622.56410256,4072.30769231,4643.58974359,4747.69230769,4627.17948718,4781.02564103,4455.8974359,4585.64102564,4410.76923077,4318.97435897,1694.0,1663.0,13.18,0.0,0.0,0.0,0.0,mike,0
95.0,4802.05128205,4656.92307692,4648.71794872,4381.02564103,4633.33333333,4073.84615385,4645.12820513,4751.28205128,4630.25641026,4780.51282051,4455.8974359,4586.15384615,4409.74358974,4327.17948718,1694.0,1662.0,13.188,0.0,0.0,0.0,0.0,mike,0
96.0,4800.0,4655.8974359,4652.30769231,4384.1025641,4634.35897436,4076.41025641,4642.05128205,4751.28205128,4632.82051282,4785.64102564,4457.43589744,4590.25641026,4410.25641026,4321.53846154,1693.0,1662.0,13.196,0.0,0.0,0.0,0.0,mike,0
97.0,4797.43589744,4653.84615385,4654.35897436,4384.1025641,4628.20512821,4077.43589744,4638.46153846,4751.79487179,4633.84615385,4791.79487179,4457.43589744,4595.8974359,4414.87179487,4317.43589744,1695.0,1663.0,13.204,0.0,0.0,0.0,0.0,mike,0
98.0,4787.17948718,4651.28205128,4647.69230769,4376.41025641,4629.74358974,4070.25641026,4635.8974359,4751.28205128,4630.25641026,4787.17948718,4455.38461538,4595.8974359,4415.38461538,4318.97435897,1694.0,1662.0,13.212,0.0,0.0,0.0,0.0,mike,0
99.0,4784.61538462,4651.79487179,4643.07692308,4371.79487179,4624.1025641,4060.51282051,4629.23076923,4747.17948718,4624.61538462,4779.48717949,4455.38461538,4590.25641026,4410.25641026,4314.35897436,1694.0,1663.0,13.22,0.0,0.0,0.0,0.0,mike,0
100.0,4796.92307692,4655.38461538,4646.15384615,4379.48717949,4612.82051282,4062.56410256,4629.23076923,4745.12820513,4625.12820513,4783.07692308,4456.41025641,4588.71794872,4410.25641026,4315.38461538,1694.0,1662.0,13.227,0.0,0.0,0.0,0.0,mike,0
101.0,4800.0,4652.30769231,4645.12820513,4384.1025641,4620.0,4073.84615385,4635.8974359,4746.66666667,4626.66666667,4785.12820513,4453.84615385,4588.20512821,4412.82051282,4321.02564103,1694.0,1664.0,13.235,0.0,0.0,0.0,0.0,mike,0
102.0,4793.33333333,4645.64102564,4644.1025641,4377.94871795,4627.17948718,4075.8974359,4638.97435897,4746.66666667,4626.15384615,4777.94871795,4452.82051282,4587.17948718,4410.76923077,4320.0,1695.0,1662.0,13.243,0.0,0.0,0.0,0.0,mike,0
103.0,4798.97435897,4648.20512821,4651.28205128,4375.38461538,4617.94871795,4070.25641026,4641.02564103,4752.82051282,4632.30769231,4786.15384615,4458.46153846,4594.35897436,4411.28205128,4323.58974359,1694.0,1663.0,13.251,0.0,0.0,0.0,0.0,mike,0
104.0,4801.02564103,4649.23076923,4655.38461538,4379.48717949,4621.02564103,4067.69230769,4644.61538462,4761.02564103,4638.97435897,4796.92307692,4462.56410256,4601.53846154,4416.41025641,4330.76923077,1695.0,1662.0,13.259,0.0,0.0,0.0,0.0,mike,0
105.0,4793.33333333,4647.69230769,4649.23076923,4379.48717949,4628.20512821,4066.66666667,4643.07692308,4757.43589744,4635.8974359,4789.23076923,4461.02564103,4599.48717949,4417.43589744,4323.07692308,1694.0,1662.0,13.266,0.0,0.0,0.0,0.0,mike,0
106.0,4793.33333333,4649.23076923,4644.1025641,4378.97435897,4620.0,4070.25641026,4636.41025641,4749.23076923,4630.25641026,4781.53846154,4458.97435897,4598.46153846,4416.41025641,4316.41025641,1695.0,1663.0,13.274,0.0,0.0,0.0,0.0,mike,0
107.0,4796.92307692,4649.23076923,4651.28205128,4382.56410256,4621.53846154,4075.38461538,4633.33333333,4748.71794872,4631.28205128,4785.64102564,4461.53846154,4600.0,4420.0,4330.25641026,1694.0,1663.0,13.282,0.0,0.0,0.0,0.0,mike,0
108.0,4797.43589744,4649.74358974,4656.92307692,4381.53846154,4628.20512821,4071.79487179,4632.30769231,4750.76923077,4632.30769231,4786.15384615,4464.61538462,4601.53846154,4423.58974359,4339.48717949,1696.0,1664.0,13.29,0.0,0.0,0.0,0.0,mike,0
109.0,4794.87179487,4649.23076923,4652.82051282,4374.87179487,4617.43589744,4060.51282051,4626.66666667,4749.23076923,4631.28205128,4782.05128205,4461.53846154,4599.48717949,4422.05128205,4329.74358974,1694.0,1663.0,13.298,0.0,0.0,0.0,0.0,mike,0
110.0,4798.46153846,4647.69230769,4647.17948718,4373.33333333,4610.76923077,4056.92307692,4622.56410256,4748.71794872,4631.79487179,4784.1025641,4456.41025641,4591.28205128,4414.87179487,4320.51282051,1695.0,1665.0,13.306,0.0,0.0,0.0,0.0,mike,0
111.0,4800.51282051,4647.69230769,4645.12820513,4380.51282051,4620.0,4063.07692308,4627.69230769,4748.20512821,4631.28205128,4788.20512821,4456.92307692,4585.64102564,4411.79487179,4321.02564103,1695.0,1663.0,13.313,0.0,0.0,0.0,0.0,mike,0
112.0,4798.97435897,4650.25641026,4654.35897436,4382.56410256,4627.69230769,4068.71794872,4634.35897436,4751.79487179,4633.84615385,4796.41025641,4465.64102564,4595.38461538,4421.02564103,4329.74358974,1695.0,1664.0,13.321,0.0,0.0,0.0,0.0,mike,0
113.0,4798.46153846,4649.74358974,4662.56410256,4376.92307692,4631.28205128,4068.71794872,4633.33333333,4752.82051282,4636.92307692,4797.94871795,4470.25641026,4603.58974359,4425.12820513,4326.66666667,1695.0,1663.0,13.329,0.0,0.0,0.0,0.0,mike,0
114.0,4789.23076923,4641.02564103,4645.64102564,4372.30769231,4625.64102564,4062.05128205,4627.69230769,4744.1025641,4631.28205128,4784.1025641,4461.02564103,4590.76923077,4411.79487179,4311.28205128,1694.0,1664.0,13.337,0.0,0.0,0.0,0.0,mike,0
115.0,4786.66666667,4639.48717949,4633.33333333,4374.35897436,4612.30769231,4059.48717949,4623.58974359,4744.1025641,4627.69230769,4784.1025641,4457.43589744,4584.61538462,4411.79487179,4315.8974359,1695.0,1662.0,13.345,0.0,0.0,0.0,0.0,mike,0
116.0,4797.94871795,4649.23076923,4650.25641026,4376.41025641,4609.23076923,4062.56410256,4621.02564103,4748.71794872,4635.8974359,4795.8974359,4462.05128205,4595.38461538,4423.58974359,4327.69230769,1694.0,1663.0,13.352,0.0,0.0,0.0,0.0,mike,0
117.0,4792.82051282,4648.71794872,4651.79487179,4372.30769231,4614.35897436,4061.53846154,4615.8974359,4741.02564103,4633.84615385,4789.23076923,4460.0,4592.30769231,4418.97435897,4320.51282051,1694.0,1662.0,13.36,0.0,0.0,0.0,0.0,mike,0
118.0,4777.94871795,4644.61538462,4630.76923077,4372.82051282,4619.48717949,4059.48717949,4612.82051282,4728.71794872,4620.0,4778.46153846,4457.43589744,4581.53846154,4412.30769231,4314.35897436,1694.0,1662.0,13.368,0.0,0.0,0.0,0.0,mike,0
119.0,4781.02564103,4654.87179487,4633.33333333,4379.48717949,4626.66666667,4063.07692308,4612.30769231,4723.07692308,4618.97435897,4783.58974359,4461.53846154,4583.07692308,4416.41025641,4320.51282051,1695.0,1662.0,13.376,0.0,0.0,0.0,0.0,mike,0
120.0,4787.17948718,4656.92307692,4644.1025641,4379.48717949,4622.05128205,4063.07692308,4611.28205128,4717.43589744,4618.97435897,4783.58974359,4455.8974359,4583.58974359,4413.33333333,4314.87179487,1694.0,1662.0,13.384,0.0,0.0,0.0,0.0,mike,0
121.0,4771.28205128,4640.0,4627.17948718,4368.71794872,4607.17948718,4055.38461538,4608.71794872,4713.33333333,4603.58974359,4769.23076923,4439.48717949,4568.71794872,4396.92307692,4298.97435897,1695.0,1663.0,13.392,0.0,0.0,0.0,0.0,mike,0
122.0,4751.79487179,4624.1025641,4603.58974359,4355.38461538,4603.58974359,4047.17948718,4603.58974359,4715.8974359,4595.8974359,4753.33333333,4427.17948718,4554.35897436,4380.0,4283.07692308,1694.0,1662.0,13.399,0.0,0.0,0.0,0.0,mike,0
123.0,4744.1025641,4613.84615385,4598.97435897,4352.30769231,4597.94871795,4043.58974359,4600.51282051,4719.48717949,4599.48717949,4744.61538462,4422.05128205,4548.20512821,4368.20512821,4269.74358974,1694.0,1663.0,13.407,0.0,0.0,0.0,0.0,mike,0
124.0,4750.76923077,4615.38461538,4605.64102564,4358.97435897,4589.23076923,4046.66666667,4607.17948718,4724.61538462,4600.0,4749.23076923,4422.56410256,4548.20512821,4367.69230769,4272.30769231,1694.0,1662.0,13.415,0.0,0.0,0.0,0.0,mike,0
125.0,4765.64102564,4632.82051282,4621.53846154,4364.1025641,4598.97435897,4053.33333333,4619.48717949,4735.8974359,4609.74358974,4766.66666667,4432.82051282,4561.02564103,4383.58974359,4289.23076923,1695.0,1663.0,13.423,0.0,0.0,0.0,0.0,mike,0
126.0,4779.48717949,4647.69230769,4637.94871795,4367.17948718,4620.0,4066.66666667,4630.25641026,4746.15384615,4624.61538462,4782.56410256,4446.66666667,4582.05128205,4402.56410256,4307.17948718,1695.0,1662.0,13.431,0.0,0.0,0.0,0.0,mike,0
127.0,4783.07692308,4646.15384615,4638.46153846,4373.84615385,4630.76923077,4076.41025641,4635.38461538,4746.66666667,4623.07692308,4783.07692308,4448.20512821,4588.20512821,4406.15384615,4311.79487179,1695.0,1663.0,13.438,0.0,0.0,0.0,0.0,mike,0
128.0,4778.97435897,4644.1025641,4635.38461538,4380.0,4625.12820513,4073.33333333,4632.82051282,4745.12820513,4621.02564103,4778.97435897,4445.64102564,4585.12820513,4405.12820513,4309.23076923,1694.0,1661.0,13.446,0.0,0.0,0.0,0.0,mike,0
0.0,4790.25641026,4653.33333333,4649.23076923,4382.56410256,4619.48717949,4071.28205128,4630.76923077,4748.71794872,4629.74358974,4788.71794872,4454.35897436,4592.30769231,4415.8974359,4318.46153846,1695.0,1663.0,13.454,0.0,0.0,0.0,0.0,mike,0
1.0,4801.53846154,4661.53846154,4656.92307692,4384.1025641,4628.71794872,4077.43589744,4631.79487179,4752.30769231,4636.92307692,4796.92307692,4464.1025641,4596.92307692,4423.58974359,4330.76923077,1695.0,1662.0,13.462,0.0,0.0,0.0,0.0,mike,0
2.0,4788.20512821,4656.92307692,4640.0,4384.61538462,4630.76923077,4073.84615385,4626.15384615,4749.23076923,4634.87179487,4787.69230769,4462.05128205,4588.71794872,4416.41025641,4326.66666667,1694.0,1662.0,13.47,0.0,0.0,0.0,0.0,mike,0
3.0,4777.43589744,4644.1025641,4630.25641026,4376.92307692,4613.33333333,4059.48717949,4614.87179487,4738.46153846,4623.58974359,4777.94871795,4455.38461538,4583.58974359,4405.64102564,4314.35897436,1695.0,1658.0,13.478,0.0,0.0,0.0,0.0,mike,0
4.0,4784.1025641,4642.56410256,4641.02564103,4370.76923077,4612.82051282,4056.41025641,4611.28205128,4730.76923077,4618.46153846,4780.0,4448.71794872,4584.61538462,4402.05128205,4315.8974359,1694.0,1659.0,13.485,0.0,0.0,0.0,0.0,mike,0
5.0,4786.15384615,4648.71794872,4649.74358974,4374.35897436,4617.43589744,4061.02564103,4615.8974359,4733.84615385,4624.61538462,4784.61538462,4445.64102564,4584.61538462,4402.56410256,4318.46153846,1695.0,1661.0,13.493,0.0,0.0,0.0,0.0,mike,0
6.0,4782.05128205,4646.66666667,4642.56410256,4375.8974359,4603.58974359,4061.53846154,4616.92307692,4734.87179487,4624.61538462,4782.05128205,4445.12820513,4583.58974359,4404.1025641,4309.23076923,1695.0,1662.0,13.501,0.0,0.0,0.0,0.0,mike,0
7.0,4782.56410256,4644.61538462,4631.79487179,4371.28205128,4612.30769231,4060.0,4614.87179487,4731.28205128,4618.46153846,4780.0,4447.69230769,4581.53846154,4406.66666667,4312.30769231,1695.0,1662.0,13.509,0.0,0.0,0.0,0.0,mike,0
8.0,4784.1025641,4649.74358974,4633.33333333,4373.84615385,4636.41025641,4062.05128205,4615.8974359,4740.0,4625.64102564,4787.17948718,4456.41025641,4583.07692308,4411.79487179,4328.71794872,1693.0,1663.0,13.517,0.0,0.0,0.0,0.0,mike,0
9.0,4782.05128205,4650.76923077,4638.46153846,4377.94871795,4628.20512821,4067.17948718,4617.43589744,4749.74358974,4634.35897436,4795.38461538,4463.07692308,4586.15384615,4418.97435897,4328.20512821,1694.0,1663.0,13.524,0.0,0.0,0.0,0.0,mike,0
10.0,4781.53846154,4647.69230769,4640.51282051,4375.8974359,4620.51282051,4069.74358974,4618.97435897,4752.30769231,4634.87179487,4797.94871795,4462.05128205,4587.69230769,4421.53846154,4323.58974359,1693.0,1663.0,13.532,0.0,0.0,0.0,0.0,mike,0
11.0,4782.56410256,4649.74358974,4642.56410256,4371.79487179,4619.48717949,4066.15384615,4616.41025641,4751.28205128,4632.30769231,4794.87179487,4458.46153846,4588.20512821,4416.41025641,4325.12820513,1694.0,1665.0,13.54,0.0,0.0,0.0,0.0,mike,0
12.0,4780.0,4647.17948718,4638.46153846,4368.20512821,4600.51282051,4060.0,4611.28205128,4745.12820513,4628.20512821,4793.84615385,4458.46153846,4585.12820513,4412.30769231,4317.94871795,1693.0,1664.0,13.548,0.0,0.0,0.0,0.0,mike,0
13.0,4772.82051282,4641.02564103,4632.82051282,4367.17948718,4599.48717949,4058.46153846,4610.76923077,4740.0,4628.20512821,4795.38461538,4461.02564103,4584.1025641,4414.87179487,4316.92307692,1693.0,1666.0,13.556,0.0,0.0,0.0,0.0,mike,0
14.0,4764.61538462,4640.51282051,4632.30769231,4367.69230769,4623.07692308,4059.48717949,4607.69230769,4735.8974359,4625.12820513,4789.74358974,4457.43589744,4583.58974359,4411.79487179,4316.92307692,1694.0,1665.0,13.564,0.0,0.0,0.0,0.0,mike,0
15.0,4766.66666667,4640.51282051,4627.69230769,4364.61538462,4635.38461538,4061.53846154,4599.48717949,4731.28205128,4615.38461538,4778.97435897,4448.71794872,4577.94871795,4404.1025641,4307.69230769,1693.0,1665.0,13.571,0.0,0.0,0.0,0.0,mike,0
16.0,4777.94871795,4644.1025641,4626.15384615,4365.64102564,4622.05128205,4065.12820513,4607.69230769,4734.87179487,4617.43589744,4782.56410256,4449.23076923,4578.97435897,4408.20512821,4313.33333333,1695.0,1665.0,13.579,0.0,0.0,0.0,0.0,mike,0
17.0,4785.12820513,4653.84615385,4642.56410256,4375.8974359,4602.56410256,4068.71794872,4627.69230769,4749.74358974,4630.25641026,4797.94871795,4458.97435897,4591.28205128,4418.97435897,4332.82051282,1694.0,1664.0,13.587,0.0,0.0,0.0,0.0,mike,0
18.0,4784.61538462,4655.38461538,4648.71794872,4385.12820513,4611.79487179,4069.74358974,4631.79487179,4753.84615385,4632.82051282,4795.8974359,4460.0,4595.38461538,4417.94871795,4328.20512821,1695.0,1664.0,13.595,0.0,0.0,0.0,0.0,mike,0
19.0,4782.56410256,4647.69230769,4635.8974359,4391.79487179,4640.51282051,4072.82051282,4627.17948718,4747.17948718,4624.61538462,4783.07692308,4450.25641026,4587.17948718,4410.25641026,4312.30769231,1695.0,1663.0,13.603,0.0,0.0,0.0,0.0,mike,0
20.0,4778.97435897,4644.1025641,4633.33333333,4397.43589744,4635.8974359,4075.38461538,4635.38461538,4745.64102564,4623.07692308,4783.58974359,4447.17948718,4583.58974359,4408.71794872,4313.84615385,1695.0,1663.0,13.611,0.0,0.0,0.0,0.0,mike,0
21.0,4784.1025641,4650.76923077,4645.64102564,4400.0,4614.87179487,4076.41025641,4651.79487179,4753.84615385,4632.82051282,4793.33333333,4454.35897436,4590.76923077,4411.79487179,4323.07692308,1694.0,1663.0,13.618,0.0,0.0,0.0,0.0,mike,0
22.0,4799.48717949,4656.41025641,4656.41025641,4403.07692308,4633.33333333,4079.48717949,4663.07692308,4767.17948718,4643.07692308,4801.02564103,4462.05128205,4602.56410256,4417.43589744,4329.23076923,1694.0,1663.0,13.626,0.0,0.0,0.0,0.0,mike,0
23.0,4800.0,4652.30769231,4655.8974359,4402.56410256,4636.92307692,4075.8974359,4664.1025641,4767.17948718,4640.0,4798.97435897,4460.51282051,4604.61538462,4418.46153846,4327.69230769,1694.0,1661.0,13.634,0.0,0.0,0.0,0.0,mike,0
24.0,4786.15384615,4645.12820513,4648.71794872,4397.43589744,4608.71794872,4069.23076923,4662.05128205,4753.84615385,4630.76923077,4789.74358974,4456.41025641,4592.82051282,4411.28205128,4317.94871795,1694.0,1662.0,13.642,0.0,0.0,0.0,0.0,mike,0
25.0,4781.53846154,4645.12820513,4642.56410256,4394.87179487,4617.94871795,4072.82051282,4662.56410256,4748.71794872,4627.17948718,4782.05128205,4451.79487179,4583.58974359,4401.53846154,4308.20512821,1695.0,1661.0,13.65,0.0,0.0,0.0,0.0,mike,0
26.0,4783.07692308,4647.17948718,4637.43589744,4395.8974359,4637.43589744,4075.8974359,4664.61538462,4752.82051282,4626.15384615,4782.05128205,4445.12820513,4584.1025641,4397.94871795,4305.12820513,1694.0,1661.0,13.657,0.0,0.0,0.0,0.0,mike,0
27.0,4779.48717949,4642.56410256,4631.28205128,4395.38461538,4628.20512821,4074.35897436,4664.61538462,4751.79487179,4624.1025641,4783.58974359,4440.0,4584.1025641,4395.8974359,4304.1025641,1696.0,1661.0,13.665,0.0,0.0,0.0,0.0,mike,0
28.0,4777.94871795,4636.41025641,4633.84615385,4395.38461538,4622.05128205,4074.87179487,4662.56410256,4749.74358974,4626.66666667,4781.02564103,4445.12820513,4583.07692308,4396.41025641,4306.66666667,1694.0,1660.0,13.673,0.0,0.0,0.0,0.0,mike,0
29.0,4784.61538462,4641.53846154,4643.07692308,4395.8974359,4620.51282051,4071.28205128,4661.02564103,4754.87179487,4631.79487179,4786.15384615,4455.8974359,4590.25641026,4405.64102564,4315.8974359,1695.0,1662.0,13.681,0.0,0.0,0.0,0.0,mike,0
30.0,4791.79487179,4653.33333333,4650.25641026,4394.87179487,4613.84615385,4067.17948718,4661.02564103,4755.8974359,4633.84615385,4795.8974359,4457.94871795,4600.0,4412.30769231,4325.64102564,1695.0,1662.0,13.689,0.0,0.0,0.0,0.0,mike,0
31.0,4804.1025641,4660.51282051,4662.56410256,4400.51282051,4633.84615385,4076.41025641,4663.07692308,4755.38461538,4635.38461538,4798.46153846,4456.92307692,4606.15384615,4414.35897436,4332.82051282,1694.0,1663.0,13.697,0.0,0.0,0.0,0.0,mike,0
32.0,4816.92307692,4656.41025641,4671.79487179,4409.74358974,4662.05128205,4084.1025641,4665.12820513,4758.97435897,4634.87179487,4794.35897436,4461.02564103,4606.15384615,4415.8974359,4334.35897436,1694.0,1662.0,13.704,0.0,0.0,0.0,0.0,mike,0
33.0,4806.66666667,4648.20512821,4663.07692308,4407.17948718,4651.28205128,4077.94871795,4664.1025641,4761.02564103,4629.74358974,4792.30769231,4453.84615385,4601.53846154,4412.30769231,4325.64102564,1694.0,1664.0,13.712,0.0,0.0,0.0,0.0,mike,0
34.0,4794.35897436,4649.74358974,4654.35897436,4400.0,4628.71794872,4073.84615385,4663.07692308,4764.1025641,4631.79487179,4793.84615385,4446.15384615,4602.56410256,4410.25641026,4325.12820513,1695.0,1663.0,13.72,0.0,0.0,0.0,0.0,mike,0
35.0,4803.58974359,4657.94871795,4663.58974359,4401.53846154,4631.79487179,4079.48717949,4665.64102564,4770.76923077,4642.56410256,4797.94871795,4456.92307692,4609.23076923,4421.02564103,4337.94871795,1693.0,1663.0,13.728,0.0,0.0,0.0,0.0,mike,0
36.0,4807.17948718,4653.84615385,4667.69230769,4402.05128205,4641.53846154,4077.43589744,4664.1025641,4770.76923077,4645.12820513,4800.0,4462.56410256,4608.20512821,4427.69230769,4340.0,1695.0,1661.0,13.736,0.0,0.0,0.0,0.0,mike,0
37.0,4793.84615385,4647.17948718,4652.30769231,4396.41025641,4641.53846154,4070.25641026,4655.8974359,4765.12820513,4639.48717949,4798.46153846,4455.8974359,4600.51282051,4422.05128205,4331.28205128,1693.0,1661.0,13.743,0.0,0.0,0.0,0.0,mike,0
38.0,4793.33333333,4647.69230769,4645.64102564,4395.8974359,4638.46153846,4070.25641026,4655.38461538,4766.66666667,4644.1025641,4798.46153846,4459.48717949,4599.48717949,4424.1025641,4331.79487179,1695.0,1663.0,13.751,0.0,0.0,0.0,0.0,mike,0
39.0,4797.94871795,4643.07692308,4646.15384615,4396.41025641,4626.66666667,4072.82051282,4656.92307692,4769.23076923,4649.74358974,4800.0,4463.07692308,4602.56410256,4429.74358974,4328.20512821,1694.0,1662.0,13.76,0.0,0.0,0.0,0.0,mike,0
40.0,4787.69230769,4640.0,4640.51282051,4394.35897436,4621.53846154,4071.79487179,4650.76923077,4764.1025641,4644.1025641,4799.48717949,4455.8974359,4600.0,4427.69230769,4317.94871795,1694.0,1663.0,13.767,0.0,0.0,0.0,0.0,mike,0
41.0,4780.51282051,4648.20512821,4638.97435897,4398.46153846,4634.87179487,4070.76923077,4647.17948718,4756.92307692,4639.48717949,4799.48717949,4455.8974359,4600.0,4426.66666667,4324.61538462,1694.0,1662.0,13.775,0.0,0.0,0.0,0.0,mike,0
42.0,4787.17948718,4648.71794872,4642.05128205,4399.48717949,4642.05128205,4068.20512821,4648.20512821,4749.74358974,4634.87179487,4798.97435897,4458.97435897,4598.97435897,4427.69230769,4330.76923077,1694.0,1662.0,13.783,0.0,0.0,0.0,0.0,mike,0
43.0,4790.25641026,4640.0,4641.53846154,4387.69230769,4633.84615385,4066.66666667,4647.17948718,4745.64102564,4626.15384615,4796.41025641,4456.92307692,4594.87179487,4427.17948718,4323.58974359,1695.0,1662.0,13.79,0.0,0.0,0.0,0.0,mike,0
44.0,4789.74358974,4642.56410256,4645.64102564,4383.58974359,4624.1025641,4071.28205128,4646.15384615,4748.20512821,4628.20512821,4795.8974359,4458.97435897,4596.92307692,4429.23076923,4328.20512821,1695.0,1662.0,13.798,0.0,0.0,0.0,0.0,mike,0
45.0,4793.33333333,4649.74358974,4650.76923077,4393.84615385,4623.07692308,4072.82051282,4641.53846154,4750.76923077,4633.84615385,4798.97435897,4461.02564103,4600.51282051,4430.25641026,4337.43589744,1695.0,1662.0,13.806,0.0,0.0,0.0,0.0,mike,0
46.0,4798.97435897,4652.30769231,4648.71794872,4400.0,4629.74358974,4066.15384615,4632.82051282,4748.20512821,4630.25641026,4797.43589744,4459.48717949,4597.94871795,4430.25641026,4335.38461538,1695.0,1662.0,13.814,0.0,0.0,0.0,0.0,mike,0
47.0,4802.56410256,4653.84615385,4650.76923077,4398.46153846,4635.8974359,4065.12820513,4634.87179487,4750.76923077,4631.28205128,4796.92307692,4457.43589744,4598.46153846,4437.43589744,4334.35897436,1696.0,1662.0,13.822,0.0,0.0,0.0,0.0,mike,0
48.0,4813.33333333,4658.46153846,4658.97435897,4400.0,4633.84615385,4068.71794872,4645.64102564,4764.61538462,4643.07692308,4806.15384615,4461.53846154,4606.15384615,4444.1025641,4341.02564103,1696.0,1663.0,13.829,0.0,0.0,0.0,0.0,mike,0
49.0,4816.41025641,4658.46153846,4659.48717949,4401.02564103,4634.87179487,4068.20512821,4644.1025641,4770.25641026,4649.23076923,4806.15384615,4469.23076923,4606.66666667,4440.51282051,4336.41025641,1696.0,1663.0,13.837,0.0,0.0,0.0,0.0,mike,0
50.0,4802.05128205,4648.71794872,4654.87179487,4396.41025641,4637.43589744,4064.61538462,4632.30769231,4758.97435897,4641.53846154,4795.38461538,4465.12820513,4603.07692308,4434.87179487,4333.33333333,1696.0,1663.0,13.845,0.0,0.0,0.0,0.0,mike,0
51.0,4799.48717949,4651.79487179,4656.92307692,4397.43589744,4636.41025641,4070.76923077,4634.35897436,4755.8974359,4640.0,4795.8974359,4460.0,4609.74358974,4439.48717949,4344.1025641,1696.0,1663.0,13.853,0.0,0.0,0.0,0.0,mike,0
52.0,4814.35897436,4666.66666667,4666.66666667,4403.58974359,4637.94871795,4077.94871795,4643.58974359,4762.56410256,4647.17948718,4803.07692308,4466.15384615,4613.33333333,4447.69230769,4350.76923077,1696.0,1664.0,13.861,0.0,0.0,0.0,0.0,mike,0
53.0,4814.87179487,4662.05128205,4668.71794872,4403.58974359,4638.46153846,4073.33333333,4640.51282051,4754.35897436,4642.56410256,4801.53846154,4468.71794872,4608.71794872,4442.56410256,4343.07692308,1696.0,1663.0,13.869,0.0,0.0,0.0,0.0,mike,0
54.0,4796.92307692,4644.61538462,4655.8974359,4395.8974359,4637.43589744,4066.15384615,4628.71794872,4737.43589744,4624.1025641,4789.74358974,4456.41025641,4596.92307692,4426.66666667,4325.64102564,1695.0,1664.0,13.876,0.0,0.0,0.0,0.0,mike,0
55.0,4793.33333333,4645.64102564,4645.64102564,4392.30769231,4631.79487179,4065.12820513,4626.15384615,4737.94871795,4617.94871795,4780.0,4450.76923077,4586.66666667,4421.53846154,4316.92307692,1696.0,1664.0,13.884,0.0,0.0,0.0,0.0,mike,0
56.0,4806.15384615,4656.92307692,4651.79487179,4398.46153846,4623.58974359,4069.74358974,4632.82051282,4748.20512821,4629.23076923,4785.12820513,4460.51282051,4593.33333333,4429.23076923,4326.15384615,1694.0,1664.0,13.892,0.0,0.0,0.0,0.0,mike,0
57.0,4805.12820513,4656.41025641,4656.41025641,4400.0,4626.66666667,4073.33333333,4625.64102564,4750.25641026,4632.82051282,4793.33333333,4461.02564103,4601.53846154,4431.28205128,4332.30769231,1695.0,1664.0,13.9,0.0,0.0,0.0,0.0,mike,0
58.0,4794.35897436,4648.71794872,4646.66666667,4392.30769231,4632.82051282,4070.25641026,4605.12820513,4745.64102564,4625.12820513,4784.61538462,4446.66666667,4590.25641026,4421.53846154,4320.0,1694.0,1662.0,13.908,0.0,0.0,0.0,0.0,mike,0
59.0,4793.33333333,4644.61538462,4646.66666667,4388.20512821,4633.84615385,4067.69230769,4595.38461538,4749.23076923,4624.61538462,4782.05128205,4440.51282051,4583.58974359,4419.48717949,4313.84615385,1694.0,1664.0,13.915,0.0,0.0,0.0,0.0,mike,0
60.0,4804.61538462,4652.82051282,4665.64102564,4395.8974359,4645.12820513,4074.35897436,4601.02564103,4763.07692308,4634.87179487,4797.43589744,4458.97435897,4603.07692308,4433.84615385,4331.28205128,1695.0,1662.0,13.923,0.0,0.0,0.0,0.0,mike,0
61.0,4811.28205128,4658.97435897,4672.82051282,4401.53846154,4648.71794872,4080.51282051,4600.51282051,4764.1025641,4637.43589744,4801.02564103,4475.38461538,4614.87179487,4445.12820513,4342.56410256,1694.0,1662.0,13.931,0.0,0.0,0.0,0.0,mike,0
62.0,4812.82051282,4653.33333333,4664.1025641,4396.41025641,4630.76923077,4076.41025641,4595.8974359,4751.28205128,4632.82051282,4794.87179487,4470.25641026,4607.17948718,4443.07692308,4340.51282051,1694.0,1662.0,13.939,0.0,0.0,0.0,0.0,mike,0
63.0,4813.84615385,4652.82051282,4665.64102564,4394.87179487,4621.02564103,4069.74358974,4596.92307692,4748.20512821,4632.82051282,4795.38461538,4463.58974359,4609.23076923,4440.51282051,4343.58974359,1695.0,1663.0,13.947,0.0,0.0,0.0,0.0,mike,0
64.0,4815.38461538,4657.94871795,4672.82051282,4398.97435897,4633.33333333,4065.12820513,4596.92307692,4753.33333333,4633.33333333,4795.8974359,4465.12820513,4614.35897436,4443.58974359,4348.20512821,1695.0,1663.0,13.955,0.0,0.0,0.0,0.0,mike,0
65.0,4815.8974359,4658.46153846,4672.30769231,4399.48717949,4645.64102564,4066.66666667,4597.43589744,4752.30769231,4630.25641026,4794.35897436,4464.1025641,4613.33333333,4444.1025641,4341.53846154,1694.0,1663.0,13.962,0.0,0.0,0.0,0.0,mike,0
66.0,4815.8974359,4657.94871795,4670.76923077,4399.48717949,4641.53846154,4071.28205128,4601.02564103,4749.74358974,4629.23076923,4789.23076923,4460.51282051,4610.76923077,4437.94871795,4337.94871795,1695.0,1663.0,13.97,0.0,0.0,0.0,0.0,mike,0
