COUNTER,AF3,F7,F3,FC5,T7,P7,O1,O2,P8,T8,FC6,F4,F8,AF4,GYROX,GYROY,TIMESTAMP,FUNC_ID,FUNC_VALUE,MARKER,SYNC_SIGNAL,USER,CLASS
90.0,4770.25641026,4615.38461538,4691.79487179,4401.02564103,4648.20512821,4134.35897436,4670.76923077,4813.84615385,4911.79487179,4651.79487179,4492.30769231,4616.41025641,4507.17948718,4447.69230769,1695.0,1663.0,10.726,0.0,0.0,0.0,0.0,mike,0
91.0,4765.64102564,4616.41025641,4691.28205128,4408.20512821,4635.8974359,4123.58974359,4662.56410256,4811.28205128,4908.20512821,4657.94871795,4494.35897436,4616.92307692,4505.64102564,4449.23076923,1696.0,1663.0,10.735,0.0,0.0,0.0,0.0,mike,0
92.0,4761.02564103,4613.84615385,4684.1025641,4401.02564103,4630.76923077,4121.02564103,4656.41025641,4804.1025641,4896.92307692,4647.69230769,4488.20512821,4606.15384615,4493.84615385,4444.1025641,1695.0,1664.0,10.744,0.0,0.0,0.0,0.0,mike,0
93.0,4769.23076923,4615.8974359,4687.69230769,4400.0,4640.0,4128.71794872,4667.69230769,4808.20512821,4894.35897436,4647.17948718,4488.20512821,4604.61538462,4491.28205128,4443.07692308,1696.0,1663.0,10.751,0.0,0.0,0.0,0.0,mike,0
94.0,4777.43589744,4620.51282051,4701.02564103,4408.71794872,4648.20512821,4137.43589744,4674.87179487,4817.94871795,4898.46153846,4659.48717949,4493.33333333,4611.28205128,4496.92307692,4446.66666667,1696.0,1662.0,10.758,0.0,0.0,0.0,0.0,mike,0
95.0,4770.76923077,4617.94871795,4697.43589744,4406.66666667,4641.53846154,4129.23076923,4663.58974359,4811.79487179,4890.76923077,4650.25641026,4489.23076923,4606.66666667,4490.76923077,4441.02564103,1696.0,1663.0,10.766,0.0,0.0,0.0,0.0,mike,0
96.0,4775.38461538,4615.8974359,4694.35897436,4404.1025641,4643.07692308,4122.56410256,4662.05128205,4808.71794872,4884.61538462,4645.12820513,4488.71794872,4607.69230769,4491.28205128,4443.07692308,1695.0,1662.0,10.774,0.0,0.0,0.0,0.0,mike,0
97.0,4784.61538462,4617.94871795,4701.53846154,4406.15384615,4650.76923077,4129.23076923,4671.28205128,4816.41025641,4894.35897436,4668.20512821,4498.46153846,4621.53846154,4504.61538462,4455.38461538,1696.0,1662.0,10.782,0.0,0.0,0.0,0.0,mike,0
98.0,4772.82051282,4615.38461538,4691.79487179,4399.48717949,4638.46153846,4124.61538462,4664.1025641,4812.30769231,4894.87179487,4669.74358974,4496.92307692,4617.43589744,4499.48717949,4451.79487179,1695.0,1662.0,10.79,0.0,0.0,0.0,0.0,mike,0
99.0,4766.66666667,4616.92307692,4684.1025641,4400.0,4633.84615385,4119.48717949,4660.0,4809.74358974,4889.23076923,4657.43589744,4488.20512821,4608.71794872,4487.69230769,4442.56410256,1695.0,1662.0,10.798,0.0,0.0,0.0,0.0,mike,0
100.0,4774.87179487,4619.48717949,4692.30769231,4407.17948718,4650.76923077,4128.20512821,4670.25641026,4814.87179487,4893.84615385,4663.58974359,4491.79487179,4612.30769231,4491.79487179,4445.64102564,1694.0,1661.0,10.805,0.0,0.0,0.0,0.0,mike,0
101.0,4768.71794872,4615.8974359,4692.82051282,4404.61538462,4651.28205128,4125.64102564,4669.74358974,4813.84615385,4893.84615385,4662.05128205,4492.82051282,4607.69230769,4493.33333333,4445.12820513,1693.0,1661.0,10.813,0.0,0.0,0.0,0.0,mike,0
102.0,4762.56410256,4616.92307692,4693.84615385,4407.69230769,4628.20512821,4120.0,4666.66666667,4810.76923077,4888.71794872,4657.43589744,4488.71794872,4604.1025641,4487.17948718,4439.48717949,1694.0,1660.0,10.821,0.0,0.0,0.0,0.0,mike,0
103.0,4769.74358974,4624.61538462,4704.61538462,4414.87179487,4632.82051282,4133.33333333,4671.28205128,4812.82051282,4886.15384615,4666.15384615,4498.46153846,4615.38461538,4489.74358974,4447.69230769,1693.0,1662.0,10.829,0.0,0.0,0.0,0.0,mike,0
104.0,4771.28205128,4629.74358974,4710.76923077,4413.84615385,4668.20512821,4143.58974359,4678.97435897,4815.8974359,4889.74358974,4669.23076923,4511.28205128,4626.15384615,4502.05128205,4460.0,1694.0,1660.0,10.837,0.0,0.0,0.0,0.0,mike,0
105.0,4764.61538462,4630.25641026,4709.74358974,4411.79487179,4670.76923077,4138.97435897,4682.05128205,4815.38461538,4890.25641026,4665.12820513,4507.17948718,4621.53846154,4503.07692308,4459.48717949,1692.0,1661.0,10.851,0.0,0.0,0.0,0.0,mike,0
106.0,4762.56410256,4632.82051282,4711.79487179,4416.41025641,4646.15384615,4137.43589744,4678.46153846,4812.82051282,4882.56410256,4666.66666667,4505.64102564,4616.92307692,4493.84615385,4457.94871795,1694.0,1662.0,10.851,0.0,0.0,0.0,0.0,mike,0
107.0,4761.53846154,4634.35897436,4711.28205128,4417.43589744,4645.12820513,4136.41025641,4673.84615385,4813.33333333,4877.43589744,4667.17948718,4507.69230769,4616.41025641,4493.33333333,4456.92307692,1692.0,1661.0,10.859,0.0,0.0,0.0,0.0,mike,0
108.0,4750.25641026,4624.1025641,4699.48717949,4409.23076923,4650.76923077,4123.58974359,4667.17948718,4809.23076923,4876.92307692,4663.07692308,4495.8974359,4603.58974359,4490.76923077,4444.61538462,1693.0,1662.0,10.868,0.0,0.0,0.0,0.0,mike,0
109.0,4740.51282051,4619.48717949,4693.84615385,4406.15384615,4640.51282051,4121.53846154,4669.23076923,4806.66666667,4875.8974359,4661.02564103,4490.25641026,4597.43589744,4483.58974359,4436.92307692,1693.0,1661.0,10.876,0.0,0.0,0.0,0.0,mike,0
110.0,4753.33333333,4630.76923077,4709.23076923,4412.82051282,4652.82051282,4142.56410256,4685.64102564,4817.43589744,4875.38461538,4666.66666667,4506.66666667,4612.30769231,4496.92307692,4449.74358974,1694.0,1663.0,10.884,0.0,0.0,0.0,0.0,mike,0
111.0,4763.07692308,4638.97435897,4722.05128205,4417.94871795,4673.84615385,4155.38461538,4694.35897436,4823.07692308,4880.0,4677.43589744,4512.82051282,4623.07692308,4511.28205128,4455.38461538,1693.0,1662.0,10.892,0.0,0.0,0.0,0.0,mike,0
112.0,4751.28205128,4630.76923077,4711.28205128,4413.33333333,4656.41025641,4138.97435897,4673.33333333,4807.69230769,4875.8974359,4674.35897436,4502.56410256,4614.35897436,4498.46153846,4443.07692308,1694.0,1662.0,10.899,0.0,0.0,0.0,0.0,mike,0
113.0,4744.61538462,4623.58974359,4701.02564103,4406.15384615,4635.38461538,4118.46153846,4656.92307692,4800.51282051,4862.56410256,4668.20512821,4499.48717949,4608.20512821,4486.66666667,4437.94871795,1695.0,1661.0,10.907,0.0,0.0,0.0,0.0,mike,0
114.0,4750.25641026,4627.17948718,4703.58974359,4404.61538462,4649.23076923,4123.07692308,4667.17948718,4812.30769231,4861.53846154,4673.33333333,4504.1025641,4613.84615385,4492.30769231,4445.64102564,1693.0,1662.0,10.916,0.0,0.0,0.0,0.0,mike,0
115.0,4752.30769231,4630.76923077,4704.61538462,4407.69230769,4661.53846154,4138.46153846,4676.41025641,4815.8974359,4866.66666667,4673.33333333,4506.66666667,4617.94871795,4500.0,4446.66666667,1695.0,1662.0,10.923,0.0,0.0,0.0,0.0,mike,0
116.0,4748.71794872,4632.82051282,4702.56410256,4413.33333333,4648.71794872,4137.43589744,4671.28205128,4811.79487179,4867.17948718,4673.33333333,4508.20512821,4616.92307692,4504.61538462,4446.66666667,1695.0,1661.0,10.931,0.0,0.0,0.0,0.0,mike,0
117.0,4748.20512821,4631.79487179,4706.15384615,4413.84615385,4645.12820513,4129.23076923,4666.15384615,4812.30769231,4870.25641026,4684.61538462,4510.76923077,4615.8974359,4508.20512821,4454.35897436,1695.0,1662.0,10.937,0.0,0.0,0.0,0.0,mike,0
118.0,4752.82051282,4635.38461538,4713.84615385,4416.41025641,4661.53846154,4136.41025641,4671.79487179,4814.87179487,4872.30769231,4691.28205128,4510.76923077,4622.05128205,4508.71794872,4461.53846154,1694.0,1661.0,10.953,0.0,0.0,0.0,0.0,mike,0
119.0,4752.82051282,4633.84615385,4710.25641026,4417.43589744,4660.51282051,4140.0,4676.92307692,4813.84615385,4862.56410256,4680.51282051,4497.94871795,4619.48717949,4501.53846154,4455.8974359,1695.0,1664.0,10.955,0.0,0.0,0.0,0.0,mike,0
120.0,4738.97435897,4621.53846154,4697.94871795,4407.17948718,4644.1025641,4125.64102564,4670.25641026,4810.25641026,4855.8974359,4672.30769231,4479.48717949,4606.15384615,4490.25641026,4443.07692308,1695.0,1662.0,10.962,0.0,0.0,0.0,0.0,mike,0
121.0,4730.25641026,4620.0,4695.8974359,4405.64102564,4643.58974359,4122.05128205,4664.61538462,4810.76923077,4863.58974359,4681.53846154,4473.84615385,4605.12820513,4489.23076923,4442.56410256,1694.0,1662.0,10.97,0.0,0.0,0.0,0.0,mike,0
122.0,4735.8974359,4625.64102564,4701.53846154,4411.28205128,4650.25641026,4128.71794872,4664.61538462,4812.82051282,4867.17948718,4688.71794872,4478.46153846,4611.28205128,4493.33333333,4449.74358974,1695.0,1663.0,10.978,0.0,0.0,0.0,0.0,mike,0
123.0,4732.30769231,4621.02564103,4703.58974359,4404.61538462,4644.1025641,4121.53846154,4662.56410256,4806.66666667,4856.92307692,4674.87179487,4473.33333333,4606.66666667,4488.20512821,4442.56410256,1694.0,1663.0,10.984,0.0,0.0,0.0,0.0,mike,0
124.0,4730.76923077,4623.07692308,4712.30769231,4401.53846154,4654.87179487,4124.61538462,4670.76923077,4810.25641026,4858.97435897,4674.35897436,4469.74358974,4607.69230769,4488.20512821,4441.02564103,1695.0,1663.0,10.993,0.0,0.0,0.0,0.0,mike,0
125.0,4749.23076923,4638.97435897,4730.25641026,4414.87179487,4671.79487179,4143.58974359,4687.17948718,4827.69230769,4875.8974359,4697.43589744,4476.41025641,4622.56410256,4496.41025641,4458.46153846,1693.0,1664.0,11.001,0.0,0.0,0.0,0.0,mike,0
126.0,4750.76923077,4640.0,4732.82051282,4420.51282051,4651.28205128,4138.46153846,4680.51282051,4828.20512821,4872.82051282,4698.97435897,4473.84615385,4624.1025641,4495.38461538,4461.02564103,1695.0,1664.0,11.009,0.0,0.0,0.0,0.0,mike,0
127.0,4732.30769231,4626.15384615,4721.53846154,4409.74358974,4629.23076923,4123.58974359,4663.58974359,4812.82051282,4855.38461538,4678.46153846,4460.0,4611.28205128,4488.71794872,4448.20512821,1693.0,1663.0,11.017,0.0,0.0,0.0,0.0,mike,0
128.0,4735.38461538,4630.25641026,4718.46153846,4410.25641026,4647.17948718,4131.28205128,4669.74358974,4808.20512821,4854.35897436,4680.0,4456.92307692,4611.28205128,4488.20512821,4452.82051282,1694.0,1664.0,11.024,0.0,0.0,0.0,0.0,mike,0
0.0,4752.30769231,4645.64102564,4722.05128205,4422.05128205,4668.71794872,4142.05128205,4683.58974359,4821.02564103,4865.12820513,4700.51282051,4465.12820513,4620.0,4495.38461538,4465.12820513,1694.0,1663.0,11.032,0.0,0.0,0.0,0.0,mike,0
1.0,4744.61538462,4643.58974359,4717.43589744,4424.61538462,4657.43589744,4141.02564103,4684.61538462,4828.71794872,4864.61538462,4704.1025641,4461.53846154,4616.41025641,4494.35897436,4456.41025641,1693.0,1663.0,11.04,0.0,0.0,0.0,0.0,mike,0
2.0,4722.56410256,4623.07692308,4697.94871795,4406.15384615,4642.05128205,4134.35897436,4673.84615385,4811.79487179,4849.74358974,4681.53846154,4436.92307692,4594.87179487,4471.28205128,4432.82051282,1693.0,1662.0,11.048,0.0,0.0,0.0,0.0,mike,0
3.0,4710.76923077,4606.15384615,4675.38461538,4385.12820513,4637.94871795,4121.53846154,4655.8974359,4790.25641026,4826.15384615,4656.92307692,4407.17948718,4576.92307692,4448.20512821,4416.41025641,1693.0,1663.0,11.056,0.0,0.0,0.0,0.0,mike,0
4.0,4718.46153846,4609.74358974,4674.35897436,4389.23076923,4643.07692308,4121.02564103,4655.8974359,4797.43589744,4828.20512821,4664.1025641,4400.51282051,4588.71794872,4464.1025641,4428.20512821,1693.0,1662.0,11.064,0.0,0.0,0.0,0.0,mike,0
5.0,4738.46153846,4624.61538462,4695.38461538,4402.05128205,4655.8974359,4137.43589744,4675.38461538,4816.41025641,4855.8974359,4693.33333333,4412.30769231,4611.28205128,4492.82051282,4452.82051282,1693.0,1662.0,11.071,0.0,0.0,0.0,0.0,mike,0
6.0,4749.23076923,4632.82051282,4703.07692308,4404.61538462,4655.8974359,4138.46153846,4677.43589744,4816.92307692,4860.0,4703.58974359,4414.35897436,4618.46153846,4497.94871795,4458.97435897,1693.0,1662.0,11.079,0.0,0.0,0.0,0.0,mike,0
7.0,4748.20512821,4634.35897436,4694.35897436,4406.15384615,4647.17948718,4125.12820513,4664.1025641,4811.79487179,4845.12820513,4693.84615385,4409.23076923,4614.87179487,4497.94871795,4455.8974359,1694.0,1663.0,11.087,0.0,0.0,0.0,0.0,mike,0
8.0,4744.61538462,4631.79487179,4689.74358974,4406.15384615,4646.15384615,4122.56410256,4661.53846154,4810.25641026,4842.05128205,4688.20512821,4410.25641026,4608.71794872,4497.94871795,4450.25641026,1694.0,1664.0,11.094,0.0,0.0,0.0,0.0,mike,0
9.0,4744.1025641,4629.74358974,4691.79487179,4404.61538462,4649.23076923,4130.25641026,4666.66666667,4810.76923077,4845.64102564,4697.43589744,4413.84615385,4606.15384615,4494.35897436,4447.17948718,1694.0,1664.0,11.103,0.0,0.0,0.0,0.0,mike,0
10.0,4750.25641026,4631.79487179,4694.35897436,4408.20512821,4650.76923077,4137.43589744,4671.28205128,4811.79487179,4845.12820513,4706.66666667,4414.35897436,4612.82051282,4501.02564103,4455.8974359,1694.0,1663.0,11.11,0.0,0.0,0.0,0.0,mike,0
11.0,4761.02564103,4635.8974359,4700.0,4411.79487179,4654.35897436,4137.43589744,4671.79487179,4811.28205128,4844.1025641,4702.56410256,4417.43589744,4617.43589744,4507.69230769,4462.05128205,1694.0,1662.0,11.118,0.0,0.0,0.0,0.0,mike,0
12.0,4768.71794872,4635.38461538,4703.58974359,4413.33333333,4650.76923077,4131.79487179,4668.20512821,4810.25641026,4843.07692308,4696.92307692,4418.97435897,4608.20512821,4497.43589744,4451.28205128,1693.0,1663.0,11.126,0.0,0.0,0.0,0.0,mike,0
13.0,4765.12820513,4632.30769231,4695.38461538,4411.79487179,4646.66666667,4126.66666667,4665.12820513,4808.71794872,4840.51282051,4701.02564103,4416.92307692,4598.46153846,4491.28205128,4443.58974359,1692.0,1662.0,11.134,0.0,0.0,0.0,0.0,mike,0
14.0,4763.07692308,4632.30769231,4691.28205128,4407.17948718,4654.87179487,4126.66666667,4664.61538462,4807.17948718,4842.05128205,4709.23076923,4421.02564103,4603.07692308,4500.0,4451.79487179,1692.0,1662.0,11.142,0.0,0.0,0.0,0.0,mike,0
15.0,4773.33333333,4634.87179487,4699.48717949,4409.74358974,4662.56410256,4128.71794872,4666.66666667,4811.28205128,4846.15384615,4710.76923077,4429.23076923,4612.30769231,4508.20512821,4461.02564103,1690.0,1662.0,11.149,0.0,0.0,0.0,0.0,mike,0
16.0,4774.87179487,4634.35897436,4702.56410256,4411.28205128,4654.35897436,4124.61538462,4668.20512821,4814.87179487,4847.69230769,4706.66666667,4426.66666667,4609.74358974,4504.1025641,4455.8974359,1690.0,1662.0,11.158,0.0,0.0,0.0,0.0,mike,0
17.0,4763.07692308,4626.66666667,4695.38461538,4404.1025641,4643.07692308,4122.05128205,4667.17948718,4813.33333333,4844.61538462,4700.0,4421.02564103,4602.05128205,4491.28205128,4442.56410256,1688.0,1662.0,11.165,0.0,0.0,0.0,0.0,mike,0
18.0,4768.20512821,4624.61538462,4697.43589744,4406.66666667,4647.69230769,4132.82051282,4670.76923077,4818.97435897,4845.64102564,4702.56410256,4424.61538462,4608.71794872,4493.84615385,4446.66666667,1689.0,1664.0,11.173,0.0,0.0,0.0,0.0,mike,0
19.0,4785.12820513,4636.92307692,4712.82051282,4418.97435897,4656.41025641,4141.53846154,4683.07692308,4829.23076923,4848.71794872,4715.38461538,4435.38461538,4622.56410256,4508.20512821,4461.02564103,1689.0,1662.0,11.181,0.0,0.0,0.0,0.0,mike,0
20.0,4786.15384615,4644.61538462,4722.56410256,4420.51282051,4656.41025641,4137.43589744,4687.69230769,4830.76923077,4848.20512821,4723.07692308,4443.07692308,4625.64102564,4511.28205128,4464.1025641,1688.0,1663.0,11.189,0.0,0.0,0.0,0.0,mike,0
21.0,4777.94871795,4637.43589744,4716.41025641,4413.33333333,4656.41025641,4136.41025641,4680.51282051,4821.02564103,4845.64102564,4713.84615385,4440.51282051,4618.97435897,4502.05128205,4457.43589744,1689.0,1663.0,11.197,0.0,0.0,0.0,0.0,mike,0
22.0,4773.84615385,4629.74358974,4706.66666667,4407.69230769,4661.53846154,4140.51282051,4675.8974359,4811.28205128,4836.92307692,4703.07692308,4430.76923077,4614.35897436,4498.46153846,4455.38461538,1689.0,1663.0,11.204,0.0,0.0,0.0,0.0,mike,0
23.0,4767.17948718,4628.71794872,4702.56410256,4402.56410256,4654.35897436,4128.71794872,4669.74358974,4809.74358974,4828.71794872,4711.28205128,4430.25641026,4613.33333333,4500.0,4455.38461538,1691.0,1663.0,11.212,0.0,0.0,0.0,0.0,mike,0
24.0,4768.71794872,4631.28205128,4702.05128205,4407.17948718,4643.07692308,4120.0,4666.15384615,4811.79487179,4835.8974359,4720.0,4441.02564103,4614.35897436,4505.12820513,4456.92307692,1691.0,1663.0,11.22,0.0,0.0,0.0,0.0,mike,0
25.0,4780.51282051,4632.30769231,4704.1025641,4412.30769231,4646.66666667,4130.25641026,4673.33333333,4816.41025641,4847.17948718,4716.92307692,4447.17948718,4617.43589744,4508.20512821,4462.56410256,1693.0,1663.0,11.228,0.0,0.0,0.0,0.0,mike,0
26.0,4783.58974359,4624.1025641,4702.56410256,4406.15384615,4648.71794872,4127.17948718,4671.28205128,4817.94871795,4840.0,4716.41025641,4442.56410256,4613.33333333,4496.41025641,4458.97435897,1694.0,1663.0,11.236,0.0,0.0,0.0,0.0,mike,0
27.0,4774.87179487,4612.82051282,4691.28205128,4394.35897436,4642.05128205,4106.66666667,4651.79487179,4804.1025641,4822.05128205,4711.28205128,4428.20512821,4600.0,4473.84615385,4444.61538462,1696.0,1662.0,11.243,0.0,0.0,0.0,0.0,mike,0
28.0,4775.38461538,4616.41025641,4690.76923077,4394.35897436,4643.58974359,4110.76923077,4652.30769231,4797.43589744,4820.0,4703.58974359,4427.17948718,4597.43589744,4472.30769231,4440.0,1695.0,1662.0,11.251,0.0,0.0,0.0,0.0,mike,0
29.0,4787.17948718,4628.20512821,4703.58974359,4407.69230769,4653.84615385,4133.33333333,4671.79487179,4807.17948718,4831.79487179,4708.71794872,4440.51282051,4607.17948718,4488.20512821,4449.23076923,1697.0,1664.0,11.258,0.0,0.0,0.0,0.0,mike,0
30.0,4788.20512821,4623.07692308,4700.51282051,4409.23076923,4645.12820513,4127.69230769,4667.69230769,4805.64102564,4822.05128205,4704.1025641,4437.94871795,4605.12820513,4478.46153846,4445.64102564,1697.0,1662.0,11.267,0.0,0.0,0.0,0.0,mike,0
31.0,4778.46153846,4611.79487179,4685.12820513,4397.94871795,4624.1025641,4109.23076923,4652.30769231,4790.25641026,4797.94871795,4683.58974359,4416.92307692,4587.17948718,4454.35897436,4427.69230769,1697.0,1664.0,11.275,0.0,0.0,0.0,0.0,mike,0
32.0,4782.05128205,4614.87179487,4686.15384615,4399.48717949,4636.41025641,4115.38461538,4656.41025641,4790.76923077,4796.41025641,4684.1025641,4411.79487179,4581.53846154,4452.30769231,4425.64102564,1699.0,1663.0,11.282,0.0,0.0,0.0,0.0,mike,0
33.0,4797.43589744,4619.48717949,4701.53846154,4412.30769231,4658.46153846,4124.1025641,4663.07692308,4804.61538462,4812.30769231,4697.94871795,4426.15384615,4595.38461538,4463.58974359,4440.0,1698.0,1663.0,11.29,0.0,0.0,0.0,0.0,mike,0
34.0,4801.53846154,4618.46153846,4704.61538462,4413.33333333,4640.51282051,4111.79487179,4654.35897436,4808.71794872,4813.84615385,4693.84615385,4431.28205128,4604.61538462,4465.64102564,4444.61538462,1699.0,1662.0,11.298,0.0,0.0,0.0,0.0,mike,0
35.0,4796.41025641,4618.97435897,4694.87179487,4410.25641026,4625.64102564,4104.1025641,4653.33333333,4806.15384615,4808.20512821,4692.82051282,4428.20512821,4598.97435897,4463.58974359,4438.46153846,1699.0,1662.0,11.306,0.0,0.0,0.0,0.0,mike,0
36.0,4796.92307692,4621.02564103,4690.25641026,4412.82051282,4646.66666667,4120.0,4664.61538462,4807.69230769,4812.82051282,4708.71794872,4433.33333333,4596.41025641,4467.69230769,4437.94871795,1699.0,1662.0,11.314,0.0,0.0,0.0,0.0,mike,0
37.0,4800.0,4622.05128205,4693.84615385,4412.82051282,4650.76923077,4131.28205128,4669.74358974,4812.30769231,4817.43589744,4717.43589744,4443.58974359,4604.1025641,4474.87179487,4445.64102564,1698.0,1662.0,11.322,0.0,0.0,0.0,0.0,mike,0
38.0,4796.92307692,4618.97435897,4693.84615385,4410.76923077,4634.87179487,4121.53846154,4662.56410256,4811.79487179,4815.8974359,4712.30769231,4443.58974359,4604.61538462,4475.8974359,4444.61538462,1699.0,1662.0,11.328,0.0,0.0,0.0,0.0,mike,0
39.0,4799.48717949,4614.35897436,4691.79487179,4409.74358974,4644.61538462,4116.41025641,4661.53846154,4809.23076923,4815.38461538,4715.38461538,4441.02564103,4601.53846154,4472.30769231,4441.02564103,1697.0,1661.0,11.337,0.0,0.0,0.0,0.0,mike,0
40.0,4812.30769231,4624.61538462,4701.53846154,4415.38461538,4663.07692308,4132.30769231,4675.38461538,4814.35897436,4816.92307692,4729.74358974,4454.87179487,4613.33333333,4482.56410256,4451.79487179,1697.0,1662.0,11.345,0.0,0.0,0.0,0.0,mike,0
41.0,4820.0,4633.84615385,4707.17948718,4420.51282051,4653.84615385,4139.48717949,4681.53846154,4816.92307692,4817.43589744,4727.69230769,4464.61538462,4620.0,4490.25641026,4461.53846154,1696.0,1661.0,11.353,0.0,0.0,0.0,0.0,mike,0
42.0,4813.33333333,4623.07692308,4695.38461538,4414.87179487,4636.41025641,4122.56410256,4668.20512821,4813.84615385,4810.76923077,4715.38461538,4453.33333333,4606.66666667,4480.0,4450.25641026,1695.0,1661.0,11.36,0.0,0.0,0.0,0.0,mike,0
43.0,4808.71794872,4614.87179487,4685.64102564,4407.17948718,4632.30769231,4111.28205128,4652.30769231,4806.66666667,4801.02564103,4713.84615385,4443.07692308,4597.94871795,4472.30769231,4439.48717949,1695.0,1661.0,11.369,0.0,0.0,0.0,0.0,mike,0
44.0,4818.46153846,4626.15384615,4692.30769231,4410.25641026,4638.97435897,4121.53846154,4654.35897436,4802.05128205,4795.8974359,4718.97435897,4450.76923077,4600.0,4474.87179487,4448.71794872,1694.0,1661.0,11.377,0.0,0.0,0.0,0.0,mike,0
45.0,4830.25641026,4632.82051282,4701.53846154,4414.35897436,4642.05128205,4126.66666667,4665.12820513,4809.74358974,4798.46153846,4720.0,4461.02564103,4605.12820513,4485.12820513,4460.51282051,1694.0,1661.0,11.383,0.0,0.0,0.0,0.0,mike,0
46.0,4833.84615385,4629.23076923,4703.07692308,4412.82051282,4640.0,4119.48717949,4665.64102564,4812.82051282,4800.51282051,4718.97435897,4461.53846154,4608.20512821,4490.76923077,4461.02564103,1693.0,1662.0,11.391,0.0,0.0,0.0,0.0,mike,0
47.0,4829.74358974,4630.25641026,4702.05128205,4412.82051282,4641.02564103,4115.38461538,4657.94871795,4800.51282051,4798.97435897,4720.0,4456.41025641,4605.12820513,4481.02564103,4456.92307692,1693.0,1662.0,11.4,0.0,0.0,0.0,0.0,mike,0
48.0,4826.66666667,4632.30769231,4702.05128205,4414.87179487,4647.69230769,4116.41025641,4657.94871795,4795.8974359,4795.38461538,4720.51282051,4452.82051282,4603.58974359,4477.43589744,4455.38461538,1693.0,1662.0,11.408,0.0,0.0,0.0,0.0,mike,0
49.0,4835.38461538,4631.28205128,4703.58974359,4416.41025641,4655.8974359,4125.64102564,4670.25641026,4805.12820513,4794.87179487,4721.53846154,4456.92307692,4607.17948718,4488.20512821,4458.97435897,1693.0,1661.0,11.416,0.0,0.0,0.0,0.0,mike,0
50.0,4842.56410256,4632.30769231,4704.61538462,4416.41025641,4661.02564103,4137.43589744,4677.43589744,4806.15384615,4795.8974359,4719.48717949,4460.51282051,4608.20512821,4486.15384615,4456.92307692,1693.0,1661.0,11.423,0.0,0.0,0.0,0.0,mike,0
51.0,4835.38461538,4632.30769231,4703.07692308,4415.8974359,4652.82051282,4131.79487179,4671.28205128,4800.0,4789.23076923,4716.41025641,4454.87179487,4602.05128205,4474.35897436,4446.66666667,1693.0,1661.0,11.431,0.0,0.0,0.0,0.0,mike,0
52.0,4826.66666667,4623.07692308,4694.35897436,4411.79487179,4636.92307692,4114.87179487,4660.51282051,4796.41025641,4778.46153846,4717.43589744,4445.12820513,4592.30769231,4470.76923077,4434.35897436,1692.0,1660.0,11.438,0.0,0.0,0.0,0.0,mike,0
53.0,4825.12820513,4612.30769231,4686.66666667,4404.61538462,4635.8974359,4113.33333333,4659.48717949,4792.82051282,4776.92307692,4716.41025641,4438.46153846,4587.69230769,4467.17948718,4431.79487179,1692.0,1661.0,11.447,0.0,0.0,0.0,0.0,mike,0
54.0,4832.82051282,4621.02564103,4694.87179487,4407.69230769,4644.1025641,4126.15384615,4670.76923077,4803.07692308,4789.74358974,4721.02564103,4448.71794872,4595.8974359,4470.25641026,4441.53846154,1694.0,1661.0,11.455,0.0,0.0,0.0,0.0,mike,0
55.0,4847.17948718,4638.46153846,4706.15384615,4418.46153846,4648.71794872,4129.23076923,4677.43589744,4817.43589744,4800.51282051,4733.84615385,4465.64102564,4608.71794872,4484.61538462,4450.76923077,1693.0,1661.0,11.462,0.0,0.0,0.0,0.0,mike,0
56.0,4841.53846154,4629.23076923,4695.8974359,4411.79487179,4649.74358974,4118.46153846,4664.61538462,4806.15384615,4790.76923077,4733.33333333,4447.69230769,4601.53846154,4482.56410256,4445.12820513,1695.0,1662.0,11.47,0.0,0.0,0.0,0.0,mike,0
57.0,4823.07692308,4610.25641026,4680.51282051,4397.43589744,4651.28205128,4111.79487179,4654.35897436,4788.71794872,4776.41025641,4719.48717949,4411.28205128,4587.69230769,4474.35897436,4433.33333333,1695.0,1661.0,11.478,0.0,0.0,0.0,0.0,mike,0
58.0,4834.35897436,4620.0,4687.69230769,4406.15384615,4650.25641026,4119.48717949,4664.61538462,4796.92307692,4782.56410256,4720.51282051,4407.69230769,4593.84615385,4485.12820513,4444.61538462,1695.0,1662.0,11.486,0.0,0.0,0.0,0.0,mike,0
59.0,4845.64102564,4629.23076923,4694.35897436,4414.35897436,4639.48717949,4118.46153846,4670.25641026,4803.07692308,4789.74358974,4732.82051282,4416.92307692,4604.61538462,4495.8974359,4455.8974359,1695.0,1663.0,11.494,0.0,0.0,0.0,0.0,mike,0
60.0,4836.41025641,4616.41025641,4687.17948718,4405.12820513,4638.46153846,4109.23076923,4662.05128205,4795.38461538,4782.56410256,4733.84615385,4412.30769231,4601.02564103,4492.30769231,4447.17948718,1695.0,1664.0,11.502,0.0,0.0,0.0,0.0,mike,0
61.0,4836.92307692,4614.35897436,4688.20512821,4404.61538462,4645.12820513,4113.33333333,4662.05128205,4799.48717949,4778.97435897,4731.79487179,4418.97435897,4596.41025641,4489.23076923,4446.15384615,1695.0,1663.0,11.509,0.0,0.0,0.0,0.0,mike,0
62.0,4848.71794872,4628.71794872,4701.02564103,4416.41025641,4644.61538462,4123.58974359,4671.28205128,4811.79487179,4783.58974359,4735.38461538,4431.79487179,4605.12820513,4495.8974359,4460.51282051,1696.0,1664.0,11.517,0.0,0.0,0.0,0.0,mike,0
63.0,4853.84615385,4631.28205128,4706.15384615,4416.92307692,4643.58974359,4124.61538462,4673.84615385,4813.84615385,4789.23076923,4735.38461538,4431.28205128,4610.76923077,4498.46153846,4463.58974359,1695.0,1664.0,11.524,0.0,0.0,0.0,0.0,mike,0
64.0,4851.79487179,4620.51282051,4697.94871795,4409.74358974,4646.66666667,4116.92307692,4667.69230769,4805.12820513,4788.20512821,4731.79487179,4428.20512821,4604.1025641,4493.33333333,4452.30769231,1696.0,1664.0,11.533,0.0,0.0,0.0,0.0,mike,0
65.0,4854.35897436,4619.48717949,4696.41025641,4410.25641026,4646.66666667,4113.84615385,4664.61538462,4806.66666667,4783.07692308,4735.8974359,4430.25641026,4603.58974359,4490.25641026,4451.28205128,1695.0,1664.0,11.54,0.0,0.0,0.0,0.0,mike,0
66.0,4862.05128205,4629.23076923,4704.1025641,4415.8974359,4645.12820513,4113.84615385,4664.61538462,4813.33333333,4782.56410256,4737.43589744,4431.28205128,4609.74358974,4494.35897436,4462.05128205,1695.0,1664.0,11.549,0.0,0.0,0.0,0.0,mike,0
67.0,4860.51282051,4627.69230769,4701.53846154,4413.33333333,4646.15384615,4111.28205128,4660.51282051,4802.05128205,4779.48717949,4727.17948718,4427.69230769,4605.12820513,4492.82051282,4457.94871795,1694.0,1664.0,11.556,0.0,0.0,0.0,0.0,mike,0
68.0,4854.87179487,4623.58974359,4695.38461538,4411.28205128,4647.69230769,4115.38461538,4666.66666667,4794.87179487,4775.38461538,4726.15384615,4423.58974359,4593.84615385,4484.61538462,4444.61538462,1695.0,1664.0,11.564,0.0,0.0,0.0,0.0,mike,0
69.0,4864.61538462,4632.30769231,4704.1025641,4420.51282051,4654.35897436,4128.71794872,4683.58974359,4809.74358974,4782.05128205,4738.46153846,4428.20512821,4600.51282051,4489.74358974,4452.30769231,1694.0,1663.0,11.572,0.0,0.0,0.0,0.0,mike,0
70.0,4862.56410256,4628.71794872,4704.1025641,4420.0,4650.76923077,4123.58974359,4676.41025641,4809.74358974,4781.02564103,4735.8974359,4430.25641026,4601.02564103,4493.84615385,4459.48717949,1695.0,1663.0,11.58,0.0,0.0,0.0,0.0,mike,0
71.0,4843.07692308,4612.82051282,4684.61538462,4407.69230769,4636.92307692,4102.05128205,4655.38461538,4789.74358974,4762.05128205,4718.97435897,4420.51282051,4583.07692308,4483.58974359,4441.53846154,1695.0,1662.0,11.588,0.0,0.0,0.0,0.0,mike,0
72.0,4849.74358974,4620.0,4684.61538462,4411.28205128,4639.48717949,4104.1025641,4662.56410256,4791.79487179,4766.66666667,4728.20512821,4427.17948718,4587.17948718,4484.61538462,4441.02564103,1693.0,1663.0,11.594,0.0,0.0,0.0,0.0,mike,0
73.0,4865.12820513,4629.23076923,4695.38461538,4417.43589744,4648.20512821,4112.82051282,4669.74358974,4802.56410256,4786.15384615,4748.71794872,4444.1025641,4603.07692308,4496.41025641,4456.41025641,1694.0,1662.0,11.603,0.0,0.0,0.0,0.0,mike,0
74.0,4859.48717949,4617.94871795,4688.71794872,4408.71794872,4650.25641026,4106.66666667,4661.02564103,4798.97435897,4780.0,4741.53846154,4440.0,4597.94871795,4493.84615385,4450.76923077,1693.0,1662.0,11.61,0.0,0.0,0.0,0.0,mike,0
75.0,4857.43589744,4615.38461538,4685.64102564,4406.66666667,4647.17948718,4105.12820513,4664.61538462,4800.0,4770.25641026,4731.28205128,4433.84615385,4589.23076923,4487.69230769,4441.02564103,1694.0,1661.0,11.619,0.0,0.0,0.0,0.0,mike,0
76.0,4864.1025641,4628.20512821,4691.79487179,4415.38461538,4637.43589744,4108.20512821,4671.28205128,4802.05128205,4773.84615385,4743.07692308,4441.53846154,4593.33333333,4490.25641026,4445.12820513,1694.0,1661.0,11.627,0.0,0.0,0.0,0.0,mike,0
77.0,4865.12820513,4633.33333333,4691.79487179,4415.8974359,4637.94871795,4109.74358974,4671.79487179,4799.48717949,4774.87179487,4753.84615385,4444.1025641,4597.94871795,4491.79487179,4449.74358974,1693.0,1661.0,11.633,0.0,0.0,0.0,0.0,mike,0
78.0,4862.56410256,4625.64102564,4683.58974359,4408.71794872,4647.17948718,4109.74358974,4670.25641026,4799.48717949,4769.23076923,4743.07692308,4442.05128205,4594.35897436,4489.74358974,4447.17948718,1692.0,1660.0,11.641,0.0,0.0,0.0,0.0,mike,0
79.0,4860.0,4617.94871795,4681.02564103,4403.58974359,4650.25641026,4106.15384615,4666.15384615,4798.97435897,4766.15384615,4732.82051282,4441.53846154,4587.69230769,4488.20512821,4441.02564103,1694.0,1661.0,11.649,0.0,0.0,0.0,0.0,mike,0
80.0,4860.0,4618.97435897,4682.05128205,4403.58974359,4648.20512821,4106.66666667,4669.23076923,4796.92307692,4765.12820513,4735.38461538,4440.51282051,4582.05128205,4486.66666667,4440.0,1693.0,1660.0,11.658,0.0,0.0,0.0,0.0,mike,0
81.0,4862.56410256,4622.05128205,4681.53846154,4405.12820513,4639.48717949,4109.23076923,4672.30769231,4798.46153846,4766.66666667,4735.38461538,4441.02564103,4587.17948718,4487.17948718,4444.1025641,1693.0,1662.0,11.665,0.0,0.0,0.0,0.0,mike,0
82.0,4863.07692308,4618.97435897,4680.0,4404.1025641,4631.28205128,4103.58974359,4664.1025641,4798.46153846,4767.17948718,4737.43589744,4444.61538462,4594.35897436,4490.76923077,4446.66666667,1694.0,1660.0,11.674,0.0,0.0,0.0,0.0,mike,0
83.0,4865.12820513,4612.82051282,4676.92307692,4400.51282051,4633.84615385,4100.0,4660.0,4794.35897436,4763.07692308,4746.66666667,4443.07692308,4594.35897436,4491.28205128,4444.61538462,1693.0,1661.0,11.682,0.0,0.0,0.0,0.0,mike,0
84.0,4873.84615385,4621.02564103,4678.46153846,4405.12820513,4642.05128205,4111.79487179,4672.82051282,4800.51282051,4766.15384615,4753.33333333,4443.58974359,4597.43589744,4489.23076923,4444.1025641,1694.0,1660.0,11.689,0.0,0.0,0.0,0.0,mike,0
85.0,4881.53846154,4632.30769231,4688.71794872,4415.38461538,4654.35897436,4128.20512821,4685.12820513,4815.38461538,4777.94871795,4753.84615385,4450.25641026,4600.51282051,4493.33333333,4445.64102564,1693.0,1660.0,11.697,0.0,0.0,0.0,0.0,mike,0
86.0,4879.48717949,4625.12820513,4689.74358974,4412.82051282,4660.0,4125.12820513,4682.56410256,4814.35897436,4773.33333333,4747.17948718,4444.1025641,4590.76923077,4487.17948718,4440.51282051,1695.0,1660.0,11.705,0.0,0.0,0.0,0.0,mike,0
87.0,4873.33333333,4611.28205128,4674.87179487,4398.97435897,4641.02564103,4103.07692308,4666.15384615,4797.43589744,4753.33333333,4734.87179487,4426.66666667,4577.94871795,4468.20512821,4429.74358974,1694.0,1660.0,11.713,0.0,0.0,0.0,0.0,mike,0
88.0,4874.87179487,4612.82051282,4673.84615385,4394.87179487,4629.74358974,4094.35897436,4660.51282051,4796.92307692,4749.74358974,4727.69230769,4428.20512821,4580.51282051,4464.1025641,4426.15384615,1695.0,1661.0,11.721,0.0,0.0,0.0,0.0,mike,0
89.0,4883.07692308,4618.46153846,4688.71794872,4401.02564103,4640.51282051,4107.17948718,4675.8974359,4812.30769231,4764.1025641,4732.82051282,4442.56410256,4589.23076923,4473.84615385,4434.87179487,1694.0,1661.0,11.728,0.0,0.0,0.0,0.0,mike,0
90.0,4887.69230769,4613.84615385,4685.12820513,4398.46153846,4637.43589744,4108.20512821,4678.46153846,4810.25641026,4763.58974359,4736.41025641,4443.07692308,4589.23076923,4477.43589744,4441.53846154,1695.0,1662.0,11.736,0.0,0.0,0.0,0.0,mike,0
91.0,4890.76923077,4617.94871795,4680.51282051,4396.41025641,4634.35897436,4105.64102564,4673.33333333,4804.61538462,4760.51282051,4744.1025641,4448.71794872,4594.87179487,4485.64102564,4443.58974359,1695.0,1662.0,11.743,0.0,0.0,0.0,0.0,mike,0
92.0,4895.38461538,4627.17948718,4688.71794872,4407.69230769,4642.05128205,4120.51282051,4683.58974359,4811.79487179,4769.74358974,4757.43589744,4459.48717949,4602.56410256,4494.35897436,4448.71794872,1695.0,1663.0,11.752,0.0,0.0,0.0,0.0,mike,0
93.0,4889.74358974,4619.48717949,4681.02564103,4404.1025641,4633.84615385,4117.94871795,4680.51282051,4803.07692308,4761.53846154,4748.71794872,4446.15384615,4591.28205128,4479.48717949,4444.61538462,1695.0,1662.0,11.759,0.0,0.0,0.0,0.0,mike,0
94.0,4887.17948718,4612.30769231,4669.74358974,4391.28205128,4634.35897436,4107.17948718,4671.28205128,4787.69230769,4742.56410256,4733.33333333,4435.8974359,4582.56410256,4468.20512821,4438.46153846,1694.0,1663.0,11.767,0.0,0.0,0.0,0.0,mike,0
95.0,4901.53846154,4627.69230769,4686.15384615,4404.1025641,4655.38461538,4122.56410256,4685.64102564,4802.05128205,4754.87179487,4743.58974359,4453.84615385,4596.41025641,4485.64102564,4452.82051282,1696.0,1663.0,11.775,0.0,0.0,0.0,0.0,mike,0
96.0,4912.30769231,4633.33333333,4699.48717949,4415.8974359,4656.41025641,4125.64102564,4693.33333333,4815.38461538,4770.76923077,4756.92307692,4465.12820513,4607.69230769,4497.94871795,4466.66666667,1694.0,1662.0,11.782,0.0,0.0,0.0,0.0,mike,0
97.0,4903.58974359,4616.41025641,4685.64102564,4401.02564103,4642.56410256,4106.66666667,4676.92307692,4803.58974359,4752.82051282,4740.0,4454.87179487,4599.48717949,4485.12820513,4452.82051282,1694.0,1664.0,11.791,0.0,0.0,0.0,0.0,mike,0
98.0,4903.07692308,4617.43589744,4685.64102564,4398.46153846,4648.71794872,4112.30769231,4674.87179487,4804.61538462,4747.69230769,4733.84615385,4453.33333333,4595.8974359,4480.0,4446.15384615,1694.0,1663.0,11.799,0.0,0.0,0.0,0.0,mike,0
99.0,4915.8974359,4636.92307692,4701.02564103,4417.43589744,4659.48717949,4129.74358974,4688.71794872,4820.51282051,4768.20512821,4761.02564103,4463.07692308,4604.61538462,4492.82051282,4460.51282051,1694.0,1663.0,11.806,0.0,0.0,0.0,0.0,mike,0
100.0,4914.87179487,4635.38461538,4696.92307692,4415.8974359,4654.35897436,4125.64102564,4688.20512821,4809.74358974,4764.1025641,4761.53846154,4458.97435897,4600.51282051,4487.69230769,4455.8974359,1694.0,1663.0,11.813,0.0,0.0,0.0,0.0,mike,0
101.0,4905.12820513,4622.05128205,4683.07692308,4400.51282051,4647.69230769,4116.41025641,4681.53846154,4794.35897436,4744.61538462,4741.53846154,4447.69230769,4589.23076923,4471.28205128,4440.0,1693.0,1664.0,11.822,0.0,0.0,0.0,0.0,mike,0
102.0,4906.66666667,4619.48717949,4685.12820513,4402.05128205,4646.15384615,4110.76923077,4678.97435897,4804.1025641,4746.66666667,4747.69230769,4451.79487179,4590.76923077,4477.43589744,4440.51282051,1694.0,1664.0,11.83,0.0,0.0,0.0,0.0,mike,0
103.0,4913.33333333,4626.66666667,4695.38461538,4410.25641026,4647.69230769,4110.25641026,4682.56410256,4815.38461538,4758.97435897,4757.43589744,4468.20512821,4603.07692308,4492.82051282,4452.82051282,1693.0,1664.0,11.838,0.0,0.0,0.0,0.0,mike,0
104.0,4913.84615385,4628.71794872,4694.87179487,4409.74358974,4648.71794872,4119.48717949,4687.69230769,4813.33333333,4759.48717949,4748.71794872,4471.79487179,4604.61538462,4494.87179487,4456.92307692,1693.0,1663.0,11.845,0.0,0.0,0.0,0.0,mike,0
105.0,4907.69230769,4622.56410256,4689.74358974,4403.07692308,4646.15384615,4123.58974359,4685.64102564,4811.28205128,4755.8974359,4750.25641026,4463.58974359,4595.8974359,4488.71794872,4449.23076923,1693.0,1664.0,11.854,0.0,0.0,0.0,0.0,mike,0
106.0,4898.97435897,4613.84615385,4685.12820513,4396.92307692,4646.15384615,4121.53846154,4679.48717949,4805.64102564,4747.69230769,4754.35897436,4455.8974359,4588.20512821,4477.94871795,4439.48717949,1694.0,1664.0,11.86,0.0,0.0,0.0,0.0,mike,0
107.0,4887.17948718,4603.07692308,4671.28205128,4388.20512821,4639.48717949,4113.84615385,4666.66666667,4786.66666667,4730.25641026,4730.25641026,4440.0,4573.33333333,4460.0,4424.1025641,1693.0,1662.0,11.868,0.0,0.0,0.0,0.0,mike,0
108.0,4882.05128205,4592.82051282,4660.0,4377.43589744,4630.25641026,4097.43589744,4654.35897436,4778.46153846,4721.02564103,4713.84615385,4428.71794872,4561.02564103,4450.25641026,4412.82051282,1693.0,1664.0,11.876,0.0,0.0,0.0,0.0,mike,0
109.0,4893.33333333,4598.97435897,4671.79487179,4383.07692308,4634.87179487,4101.53846154,4662.56410256,4795.8974359,4735.38461538,4732.30769231,4443.58974359,4575.38461538,4464.1025641,4424.1025641,1694.0,1663.0,11.885,0.0,0.0,0.0,0.0,mike,0
110.0,4911.79487179,4620.0,4692.30769231,4403.58974359,4637.94871795,4121.02564103,4681.02564103,4813.84615385,4755.8974359,4756.92307692,4464.61538462,4595.38461538,4486.15384615,4444.61538462,1693.0,1663.0,11.892,0.0,0.0,0.0,0.0,mike,0
111.0,4914.35897436,4625.64102564,4689.74358974,4408.71794872,4630.76923077,4120.0,4681.53846154,4807.69230769,4750.76923077,4750.76923077,4463.58974359,4592.82051282,4486.66666667,4447.17948718,1695.0,1664.0,11.9,0.0,0.0,0.0,0.0,mike,0
112.0,4905.64102564,4611.79487179,4674.87179487,4389.74358974,4634.87179487,4107.69230769,4670.76923077,4794.35897436,4737.94871795,4730.76923077,4456.41025641,4581.02564103,4473.33333333,4439.48717949,1695.0,1663.0,11.908,0.0,0.0,0.0,0.0,mike,0
113.0,4904.61538462,4611.28205128,4676.41025641,4385.12820513,4644.1025641,4110.76923077,4672.30769231,4800.0,4743.07692308,4738.46153846,4462.56410256,4585.12820513,4477.94871795,4440.0,1695.0,1663.0,11.915,0.0,0.0,0.0,0.0,mike,0
114.0,4923.58974359,4626.66666667,4691.79487179,4404.1025641,4643.58974359,4118.46153846,4680.0,4813.33333333,4751.79487179,4760.51282051,4471.79487179,4600.0,4492.30769231,4450.76923077,1695.0,1662.0,11.924,0.0,0.0,0.0,0.0,mike,0
115.0,4941.53846154,4635.8974359,4704.1025641,4416.41025641,4646.15384615,4115.38461538,4678.46153846,4815.8974359,4753.33333333,4762.56410256,4477.94871795,4607.17948718,4494.87179487,4463.07692308,1696.0,1662.0,11.937,0.0,0.0,0.0,0.0,mike,0
116.0,4936.92307692,4634.35897436,4703.58974359,4411.28205128,4647.69230769,4112.30769231,4670.25641026,4806.15384615,4750.25641026,4751.79487179,4477.94871795,4598.46153846,4490.76923077,4460.0,1695.0,1662.0,11.939,0.0,0.0,0.0,0.0,mike,0
117.0,4922.56410256,4627.69230769,4695.38461538,4403.58974359,4635.8974359,4111.28205128,4662.56410256,4794.35897436,4741.02564103,4748.71794872,4466.66666667,4583.07692308,4482.56410256,4443.58974359,1695.0,1660.0,11.947,0.0,0.0,0.0,0.0,mike,0
118.0,4920.0,4622.05128205,4686.15384615,4398.97435897,4632.30769231,4107.17948718,4660.0,4790.76923077,4731.79487179,4741.02564103,4455.8974359,4577.94871795,4473.84615385,4435.38461538,1695.0,1662.0,11.954,0.0,0.0,0.0,0.0,mike,0
119.0,4924.1025641,4623.58974359,4686.15384615,4397.94871795,4647.69230769,4110.25641026,4665.12820513,4794.87179487,4732.82051282,4732.30769231,4464.1025641,4583.58974359,4475.38461538,4441.02564103,1696.0,1662.0,11.964,0.0,0.0,0.0,0.0,mike,0
120.0,4923.07692308,4622.05128205,4688.20512821,4397.94871795,4650.25641026,4116.41025641,4673.33333333,4797.43589744,4737.94871795,4742.56410256,4475.38461538,4585.64102564,4478.46153846,4445.64102564,1695.0,1663.0,11.97,0.0,0.0,0.0,0.0,mike,0
121.0,4921.02564103,4614.87179487,4683.58974359,4395.8974359,4625.64102564,4109.23076923,4671.28205128,4794.35897436,4735.38461538,4753.84615385,4466.66666667,4577.43589744,4475.38461538,4437.94871795,1695.0,1663.0,11.979,0.0,0.0,0.0,0.0,mike,0
122.0,4921.02564103,4614.35897436,4681.53846154,4394.87179487,4623.58974359,4107.69230769,4668.71794872,4794.35897436,4734.35897436,4748.20512821,4454.87179487,4568.71794872,4472.30769231,4428.20512821,1694.0,1664.0,11.986,0.0,0.0,0.0,0.0,mike,0
123.0,4924.1025641,4619.48717949,4687.69230769,4396.41025641,4650.25641026,4121.53846154,4671.28205128,4792.82051282,4732.82051282,4742.05128205,4458.46153846,4566.66666667,4471.28205128,4428.20512821,1695.0,1663.0,11.993,0.0,0.0,0.0,0.0,mike,0
124.0,4935.38461538,4622.56410256,4696.92307692,4401.02564103,4654.35897436,4122.56410256,4674.87179487,4794.35897436,4733.33333333,4747.69230769,4469.74358974,4579.48717949,4475.8974359,4440.51282051,1693.0,1664.0,12.002,0.0,0.0,0.0,0.0,mike,0
125.0,4948.71794872,4631.28205128,4705.64102564,4412.30769231,4647.17948718,4123.07692308,4682.05128205,4809.23076923,4745.64102564,4753.33333333,4484.1025641,4600.0,4489.23076923,4457.43589744,1694.0,1664.0,12.01,0.0,0.0,0.0,0.0,mike,0
126.0,4945.12820513,4635.8974359,4706.66666667,4415.8974359,4647.17948718,4126.66666667,4678.97435897,4813.33333333,4749.74358974,4752.82051282,4488.20512821,4600.51282051,4496.41025641,4456.92307692,1693.0,1663.0,12.017,0.0,0.0,0.0,0.0,mike,0
127.0,4928.71794872,4623.58974359,4695.8974359,4403.58974359,4634.35897436,4109.23076923,4665.64102564,4799.48717949,4738.46153846,4749.23076923,4477.94871795,4584.1025641,4489.74358974,4443.58974359,1694.0,1665.0,12.025,0.0,0.0,0.0,0.0,mike,0
128.0,4921.53846154,4614.87179487,4690.76923077,4394.35897436,4627.69230769,4101.53846154,4667.17948718,4795.8974359,4732.82051282,4750.25641026,4473.33333333,4580.51282051,4479.48717949,4440.51282051,1694.0,1663.0,12.032,0.0,0.0,0.0,0.0,mike,0
0.0,4924.1025641,4623.58974359,4695.38461538,4397.94871795,4645.12820513,4121.53846154,4674.87179487,4799.48717949,4735.38461538,4751.79487179,4474.35897436,4585.12820513,4472.82051282,4443.07692308,1694.0,1664.0,12.04,0.0,0.0,0.0,0.0,mike,0
1.0,4927.69230769,4631.79487179,4707.17948718,4405.12820513,4651.28205128,4127.17948718,4675.38461538,4795.8974359,4733.84615385,4747.69230769,4472.82051282,4585.64102564,4477.94871795,4446.15384615,1695.0,1663.0,12.049,0.0,0.0,0.0,0.0,mike,0
2.0,4929.23076923,4633.84615385,4715.8974359,4413.33333333,4637.94871795,4120.0,4677.94871795,4801.53846154,4732.30769231,4746.15384615,4482.05128205,4594.87179487,4486.66666667,4455.38461538,1695.0,1663.0,12.057,0.0,0.0,0.0,0.0,mike,0
3.0,4925.64102564,4635.38461538,4711.79487179,4416.92307692,4630.76923077,4121.02564103,4677.94871795,4811.79487179,4735.8974359,4752.30769231,4491.28205128,4602.56410256,4482.56410256,4458.97435897,1695.0,1663.0,12.071,0.0,0.0,0.0,0.0,mike,0
4.0,4912.30769231,4630.76923077,4699.48717949,4406.15384615,4632.82051282,4115.8974359,4665.12820513,4803.58974359,4733.33333333,4747.17948718,4481.53846154,4590.25641026,4471.79487179,4447.17948718,1694.0,1663.0,12.077,0.0,0.0,0.0,0.0,mike,0
5.0,4895.38461538,4617.43589744,4688.20512821,4389.74358974,4634.35897436,4104.1025641,4658.46153846,4792.82051282,4727.69230769,4731.28205128,4472.30769231,4572.82051282,4465.12820513,4432.30769231,1694.0,1664.0,12.081,0.0,0.0,0.0,0.0,mike,0
6.0,4885.12820513,4607.17948718,4683.07692308,4385.64102564,4631.28205128,4103.07692308,4662.05128205,4795.38461538,4729.74358974,4733.33333333,4474.87179487,4572.82051282,4460.0,4425.64102564,1694.0,1663.0,12.088,0.0,0.0,0.0,0.0,mike,0
7.0,4884.1025641,4606.66666667,4683.07692308,4389.23076923,4630.25641026,4112.30769231,4663.07692308,4802.05128205,4736.41025641,4750.25641026,4475.38461538,4582.05128205,4462.56410256,4431.79487179,1695.0,1663.0,12.096,0.0,0.0,0.0,0.0,mike,0
8.0,4891.28205128,4614.87179487,4689.23076923,4393.84615385,4633.84615385,4122.05128205,4667.69230769,4804.1025641,4737.43589744,4753.84615385,4477.43589744,4589.23076923,4471.79487179,4442.05128205,1694.0,1663.0,12.104,0.0,0.0,0.0,0.0,mike,0
9.0,4891.79487179,4621.02564103,4696.92307692,4398.46153846,4634.87179487,4127.69230769,4675.8974359,4804.1025641,4736.92307692,4749.23076923,4490.25641026,4593.33333333,4477.94871795,4446.66666667,1695.0,1664.0,12.112,0.0,0.0,0.0,0.0,mike,0
10.0,4878.46153846,4609.74358974,4694.35897436,4393.33333333,4629.23076923,4120.51282051,4670.25641026,4798.46153846,4730.25641026,4746.66666667,4488.20512821,4589.23076923,4471.28205128,4444.1025641,1695.0,1662.0,12.118,0.0,0.0,0.0,0.0,mike,0
11.0,4867.69230769,4599.48717949,4685.64102564,4380.51282051,4632.30769231,4113.33333333,4663.58974359,4794.35897436,4723.07692308,4744.1025641,4472.30769231,4580.51282051,4460.0,4437.43589744,1695.0,1662.0,12.127,0.0,0.0,0.0,0.0,mike,0
12.0,4874.35897436,4610.25641026,4690.25641026,4385.12820513,4639.48717949,4116.41025641,4675.38461538,4802.56410256,4732.30769231,4749.74358974,4478.46153846,4583.58974359,4464.1025641,4438.46153846,1696.0,1661.0,12.134,0.0,0.0,0.0,0.0,mike,0
13.0,4876.41025641,4617.43589744,4704.1025641,4397.94871795,4624.61538462,4115.8974359,4674.87179487,4806.66666667,4739.48717949,4753.84615385,4493.84615385,4587.69230769,4476.92307692,4443.07692308,1695.0,1662.0,12.142,0.0,0.0,0.0,0.0,mike,0
14.0,4873.33333333,4618.97435897,4703.58974359,4396.92307692,4620.0,4114.87179487,4660.51282051,4796.92307692,4731.79487179,4751.79487179,4491.28205128,4583.58974359,4475.8974359,4443.58974359,1695.0,1662.0,12.15,0.0,0.0,0.0,0.0,mike,0
15.0,4885.12820513,4630.76923077,4706.66666667,4400.0,4649.74358974,4125.12820513,4670.25641026,4795.38461538,4732.30769231,4760.0,4488.71794872,4589.74358974,4474.87179487,4451.28205128,1695.0,1662.0,12.158,0.0,0.0,0.0,0.0,mike,0
16.0,4889.23076923,4632.30769231,4715.38461538,4406.66666667,4661.53846154,4127.69230769,4683.07692308,4802.05128205,4733.84615385,4763.58974359,4494.87179487,4594.87179487,4477.43589744,4454.35897436,1695.0,1662.0,12.167,0.0,0.0,0.0,0.0,mike,0
17.0,4874.35897436,4614.87179487,4704.1025641,4397.94871795,4636.92307692,4114.35897436,4667.17948718,4797.94871795,4723.58974359,4750.76923077,4491.28205128,4585.12820513,4472.30769231,4440.0,1694.0,1661.0,12.173,0.0,0.0,0.0,0.0,mike,0
18.0,4871.28205128,4615.8974359,4693.84615385,4391.28205128,4633.33333333,4115.8974359,4658.97435897,4796.41025641,4723.07692308,4746.15384615,4487.69230769,4583.07692308,4470.76923077,4435.8974359,1694.0,1661.0,12.182,0.0,0.0,0.0,0.0,mike,0
19.0,4875.8974359,4628.71794872,4698.46153846,4397.94871795,4647.17948718,4124.61538462,4669.23076923,4803.58974359,4728.20512821,4748.20512821,4491.28205128,4587.17948718,4471.79487179,4441.02564103,1694.0,1661.0,12.189,0.0,0.0,0.0,0.0,mike,0
20.0,4864.61538462,4619.48717949,4691.79487179,4396.41025641,4628.20512821,4109.74358974,4659.48717949,4790.76923077,4718.46153846,4743.07692308,4481.02564103,4574.87179487,4460.0,4430.25641026,1694.0,1662.0,12.198,0.0,0.0,0.0,0.0,mike,0
21.0,4854.87179487,4611.79487179,4682.56410256,4392.82051282,4613.84615385,4099.48717949,4643.58974359,4773.84615385,4709.74358974,4737.94871795,4469.74358974,4563.07692308,4453.84615385,4421.02564103,1694.0,1661.0,12.204,0.0,0.0,0.0,0.0,mike,0
22.0,4864.61538462,4626.15384615,4694.35897436,4400.51282051,4634.35897436,4118.97435897,4659.48717949,4784.61538462,4716.92307692,4743.58974359,4482.56410256,4573.33333333,4463.58974359,4428.71794872,1692.0,1662.0,12.213,0.0,0.0,0.0,0.0,mike,0
23.0,4863.58974359,4628.20512821,4698.46153846,4397.94871795,4643.07692308,4126.66666667,4671.79487179,4794.35897436,4718.46153846,4749.23076923,4488.71794872,4576.92307692,4466.15384615,4431.79487179,1694.0,1661.0,12.221,0.0,0.0,0.0,0.0,mike,0
24.0,4849.74358974,4613.84615385,4687.69230769,4388.20512821,4631.79487179,4109.23076923,4662.56410256,4788.20512821,4711.79487179,4746.66666667,4475.38461538,4569.74358974,4456.41025641,4426.66666667,1692.0,1660.0,12.228,0.0,0.0,0.0,0.0,mike,0
25.0,4850.25641026,4615.8974359,4691.28205128,4392.30769231,4635.8974359,4107.17948718,4660.0,4791.28205128,4714.35897436,4742.05128205,4476.92307692,4575.8974359,4456.41025641,4426.15384615,1693.0,1660.0,12.237,0.0,0.0,0.0,0.0,mike,0
26.0,4854.87179487,4625.64102564,4698.97435897,4400.0,4642.56410256,4122.56410256,4666.66666667,4802.05128205,4721.02564103,4746.66666667,4490.76923077,4584.61538462,4464.1025641,4430.25641026,1692.0,1660.0,12.245,0.0,0.0,0.0,0.0,mike,0
27.0,4848.20512821,4620.51282051,4696.92307692,4397.43589744,4634.87179487,4133.33333333,4669.23076923,4801.53846154,4721.02564103,4751.28205128,4492.30769231,4583.07692308,4464.61538462,4432.82051282,1692.0,1660.0,12.252,0.0,0.0,0.0,0.0,mike,0
28.0,4839.48717949,4611.79487179,4691.79487179,4390.25641026,4629.74358974,4131.28205128,4665.12820513,4796.41025641,4716.41025641,4746.66666667,4485.64102564,4581.02564103,4462.05128205,4431.28205128,1692.0,1660.0,12.259,0.0,0.0,0.0,0.0,mike,0
29.0,4843.58974359,4618.46153846,4694.87179487,4390.76923077,4629.23076923,4128.20512821,4662.05128205,4795.38461538,4721.02564103,4751.28205128,4487.17948718,4585.64102564,4467.69230769,4437.43589744,1693.0,1660.0,12.268,0.0,0.0,0.0,0.0,mike,0
30.0,4854.35897436,4636.41025641,4709.23076923,4403.07692308,4640.51282051,4138.46153846,4670.25641026,4802.05128205,4733.33333333,4765.64102564,4499.48717949,4597.43589744,4483.07692308,4454.87179487,1693.0,1660.0,12.275,0.0,0.0,0.0,0.0,mike,0
31.0,4857.94871795,4644.1025641,4718.46153846,4414.87179487,4647.69230769,4143.07692308,4678.97435897,4810.25641026,4734.35897436,4770.76923077,4508.71794872,4607.17948718,4492.82051282,4463.58974359,1693.0,1661.0,12.284,0.0,0.0,0.0,0.0,mike,0
32.0,4842.56410256,4629.74358974,4704.1025641,4403.07692308,4626.66666667,4126.15384615,4665.64102564,4798.46153846,4715.8974359,4753.84615385,4494.35897436,4591.79487179,4477.94871795,4448.71794872,1695.0,1661.0,12.291,0.0,0.0,0.0,0.0,mike,0
33.0,4816.92307692,4612.30769231,4688.20512821,4387.69230769,4618.46153846,4123.58974359,4651.28205128,4777.43589744,4699.48717949,4736.41025641,4476.41025641,4570.25641026,4458.97435897,4432.82051282,1693.0,1662.0,12.298,0.0,0.0,0.0,0.0,mike,0
34.0,4816.92307692,4616.41025641,4694.87179487,4393.33333333,4636.92307692,4137.43589744,4658.97435897,4782.05128205,4705.12820513,4743.07692308,4485.64102564,4578.46153846,4466.15384615,4438.46153846,1695.0,1662.0,12.306,0.0,0.0,0.0,0.0,mike,0
35.0,4825.64102564,4623.58974359,4702.05128205,4398.97435897,4637.43589744,4127.69230769,4663.07692308,4796.41025641,4718.46153846,4757.94871795,4500.0,4590.25641026,4477.43589744,4447.17948718,1694.0,1662.0,12.315,0.0,0.0,0.0,0.0,mike,0
36.0,4820.0,4624.1025641,4701.02564103,4395.38461538,4633.33333333,4123.07692308,4663.07692308,4799.48717949,4721.53846154,4761.53846154,4505.64102564,4588.20512821,4481.02564103,4445.64102564,1695.0,1663.0,12.322,0.0,0.0,0.0,0.0,mike,0
37.0,4815.38461538,4629.23076923,4702.56410256,4397.43589744,4642.05128205,4137.94871795,4664.61538462,4798.46153846,4722.56410256,4764.61538462,4507.69230769,4587.69230769,4487.69230769,4444.61538462,1694.0,1662.0,12.331,0.0,0.0,0.0,0.0,mike,0
38.0,4810.25641026,4628.71794872,4699.48717949,4398.97435897,4629.74358974,4130.76923077,4654.87179487,4792.82051282,4719.48717949,4767.17948718,4498.97435897,4578.46153846,4478.97435897,4436.92307692,1695.0,1663.0,12.337,0.0,0.0,0.0,0.0,mike,0
39.0,4796.41025641,4615.38461538,4686.15384615,4385.64102564,4615.8974359,4113.84615385,4640.51282051,4780.51282051,4704.61538462,4755.38461538,4479.48717949,4557.43589744,4457.43589744,4422.05128205,1695.0,1662.0,12.346,0.0,0.0,0.0,0.0,mike,0
40.0,4789.23076923,4609.74358974,4677.43589744,4380.51282051,4627.17948718,4116.92307692,4637.43589744,4772.30769231,4692.82051282,4746.15384615,4455.8974359,4553.84615385,4458.97435897,4418.46153846,1695.0,1662.0,12.354,0.0,0.0,0.0,0.0,mike,0
41.0,4795.38461538,4621.53846154,4686.66666667,4391.28205128,4638.97435897,4122.56410256,4648.20512821,4783.58974359,4704.1025641,4750.25641026,4440.51282051,4569.23076923,4482.05128205,4431.79487179,1694.0,1661.0,12.361,0.0,0.0,0.0,0.0,mike,0
42.0,4801.02564103,4633.33333333,4701.53846154,4400.0,4638.97435897,4127.17948718,4659.48717949,4796.41025641,4717.43589744,4756.92307692,4440.51282051,4577.43589744,4492.82051282,4440.0,1696.0,1661.0,12.369,0.0,0.0,0.0,0.0,mike,0
43.0,4801.02564103,4633.84615385,4700.51282051,4397.94871795,4631.28205128,4125.12820513,4656.92307692,4789.23076923,4710.25641026,4754.35897436,4436.92307692,4574.35897436,4486.66666667,4434.87179487,1695.0,1660.0,12.377,0.0,0.0,0.0,0.0,mike,0
44.0,4785.64102564,4620.51282051,4683.58974359,4387.17948718,4612.82051282,4104.1025641,4637.94871795,4771.79487179,4690.76923077,4734.35897436,4421.02564103,4563.58974359,4471.28205128,4422.56410256,1695.0,1661.0,12.385,0.0,0.0,0.0,0.0,mike,0
45.0,4780.51282051,4614.35897436,4683.58974359,4384.61538462,4614.87179487,4104.61538462,4637.94871795,4777.43589744,4692.82051282,4731.28205128,4424.61538462,4566.15384615,4470.76923077,4425.64102564,1695.0,1661.0,12.392,0.0,0.0,0.0,0.0,mike,0
46.0,4806.15384615,4635.8974359,4706.66666667,4398.97435897,4640.0,4136.41025641,4668.71794872,4800.0,4717.43589744,4759.48717949,4448.20512821,4587.69230769,4491.28205128,4446.66666667,1695.0,1661.0,12.4,0.0,0.0,0.0,0.0,mike,0
47.0,4812.82051282,4644.61538462,4707.17948718,4406.15384615,4641.02564103,4138.97435897,4676.92307692,4802.05128205,4721.02564103,4766.15384615,4451.28205128,4592.30769231,4493.84615385,4449.74358974,1695.0,1660.0,12.408,0.0,0.0,0.0,0.0,mike,0
48.0,4794.35897436,4627.17948718,4691.28205128,4395.38461538,4629.74358974,4117.43589744,4657.43589744,4792.30769231,4704.61538462,4747.69230769,4438.97435897,4579.48717949,4480.0,4435.8974359,1695.0,1661.0,12.416,0.0,0.0,0.0,0.0,mike,0
49.0,4793.33333333,4625.12820513,4696.92307692,4393.33333333,4639.48717949,4122.56410256,4658.46153846,4793.84615385,4706.66666667,4753.84615385,4441.02564103,4579.48717949,4483.58974359,4437.43589744,1694.0,1660.0,12.425,0.0,0.0,0.0,0.0,mike,0
50.0,4805.64102564,4638.46153846,4707.69230769,4403.07692308,4643.07692308,4135.38461538,4671.28205128,4801.02564103,4722.56410256,4769.74358974,4456.92307692,4589.74358974,4496.92307692,4451.28205128,1695.0,1660.0,12.432,0.0,0.0,0.0,0.0,mike,0
51.0,4800.51282051,4635.8974359,4697.94871795,4402.56410256,4630.76923077,4127.17948718,4664.1025641,4800.0,4723.58974359,4765.64102564,4462.56410256,4586.15384615,4495.8974359,4451.28205128,1695.0,1659.0,12.439,0.0,0.0,0.0,0.0,mike,0
52.0,4784.61538462,4625.64102564,4685.64102564,4394.35897436,4632.82051282,4120.51282051,4652.30769231,4791.28205128,4709.74358974,4758.97435897,4453.33333333,4571.28205128,4490.25641026,4438.46153846,1694.0,1660.0,12.447,0.0,0.0,0.0,0.0,mike,0
53.0,4778.97435897,4627.69230769,4686.15384615,4393.33333333,4643.07692308,4123.07692308,4653.33333333,4788.20512821,4705.64102564,4759.48717949,4451.79487179,4567.17948718,4491.79487179,4435.8974359,1695.0,1660.0,12.455,0.0,0.0,0.0,0.0,mike,0
54.0,4790.25641026,4632.30769231,4692.82051282,4397.94871795,4637.43589744,4125.12820513,4658.97435897,4791.79487179,4712.30769231,4763.07692308,4454.87179487,4576.92307692,4491.79487179,4442.56410256,1694.0,1660.0,12.463,0.0,0.0,0.0,0.0,mike,0
55.0,4797.94871795,4634.87179487,4698.46153846,4401.02564103,4628.20512821,4125.64102564,4665.12820513,4795.38461538,4715.8974359,4771.79487179,4454.35897436,4582.05128205,4491.79487179,4445.64102564,1695.0,1661.0,12.47,0.0,0.0,0.0,0.0,mike,0
56.0,4785.64102564,4631.28205128,4693.33333333,4397.43589744,4627.17948718,4122.56410256,4663.58974359,4795.38461538,4710.76923077,4769.23076923,4452.30769231,4574.35897436,4490.25641026,4442.05128205,1695.0,1660.0,12.48,0.0,0.0,0.0,0.0,mike,0
57.0,4775.38461538,4620.51282051,4683.07692308,4387.17948718,4631.79487179,4121.53846154,4655.38461538,4790.76923077,4705.12820513,4751.79487179,4447.17948718,4567.69230769,4486.66666667,4440.0,1695.0,1662.0,12.486,0.0,0.0,0.0,0.0,mike,0
58.0,4780.51282051,4617.94871795,4684.61538462,4385.12820513,4634.87179487,4124.61538462,4653.84615385,4788.20512821,4705.12820513,4750.76923077,4445.12820513,4572.82051282,4488.20512821,4443.58974359,1694.0,1662.0,12.494,0.0,0.0,0.0,0.0,mike,0
59.0,4783.58974359,4627.17948718,4689.23076923,4393.33333333,4631.28205128,4122.05128205,4657.94871795,4793.33333333,4707.69230769,4763.58974359,4454.87179487,4579.48717949,4491.79487179,4445.64102564,1695.0,1662.0,12.503,0.0,0.0,0.0,0.0,mike,0
60.0,4780.51282051,4627.69230769,4687.69230769,4391.28205128,4630.76923077,4114.87179487,4657.43589744,4796.92307692,4705.64102564,4757.94871795,4458.97435897,4581.02564103,4489.74358974,4444.1025641,1695.0,1661.0,12.511,0.0,0.0,0.0,0.0,mike,0
61.0,4781.02564103,4620.0,4688.20512821,4383.58974359,4631.28205128,4115.8974359,4654.35897436,4793.84615385,4704.1025641,4750.76923077,4453.84615385,4578.97435897,4486.15384615,4440.51282051,1694.0,1662.0,12.518,0.0,0.0,0.0,0.0,mike,0
62.0,4778.46153846,4623.58974359,4691.28205128,4387.69230769,4631.79487179,4123.58974359,4657.94871795,4793.84615385,4708.71794872,4765.64102564,4457.94871795,4576.41025641,4491.79487179,4443.07692308,1696.0,1662.0,12.525,0.0,0.0,0.0,0.0,mike,0
63.0,4768.71794872,4626.66666667,4687.17948718,4391.28205128,4634.35897436,4126.15384615,4666.66666667,4790.25641026,4706.66666667,4769.74358974,4456.92307692,4572.82051282,4489.74358974,4441.02564103,1695.0,1662.0,12.533,0.0,0.0,0.0,0.0,mike,0
64.0,4763.58974359,4618.97435897,4679.48717949,4388.71794872,4630.25641026,4122.05128205,4662.56410256,4778.46153846,4695.38461538,4751.79487179,4443.58974359,4565.64102564,4476.92307692,4428.71794872,1696.0,1662.0,12.541,0.0,0.0,0.0,0.0,mike,0
65.0,4763.58974359,4615.8974359,4676.41025641,4388.71794872,4626.66666667,4121.02564103,4648.71794872,4776.41025641,4689.74358974,4746.15384615,4439.48717949,4557.43589744,4470.76923077,4419.48717949,1694.0,1661.0,12.55,0.0,0.0,0.0,0.0,mike,0
66.0,4762.56410256,4617.43589744,4676.41025641,4389.23076923,4635.8974359,4123.58974359,4649.23076923,4778.46153846,4689.23076923,4744.61538462,4442.05128205,4553.33333333,4470.76923077,4420.51282051,1695.0,1662.0,12.557,0.0,0.0,0.0,0.0,mike,0
67.0,4762.56410256,4618.97435897,4677.94871795,4389.74358974,4638.97435897,4124.1025641,4657.94871795,4780.51282051,4695.8974359,4748.20512821,4442.05128205,4556.41025641,4472.30769231,4425.64102564,1695.0,1661.0,12.566,0.0,0.0,0.0,0.0,mike,0
68.0,4757.43589744,4617.43589744,4676.41025641,4388.71794872,4625.12820513,4118.46153846,4655.38461538,4782.56410256,4702.05128205,4763.58974359,4440.51282051,4557.43589744,4474.87179487,4427.69230769,1695.0,1662.0,12.573,0.0,0.0,0.0,0.0,mike,0
69.0,4753.33333333,4617.43589744,4675.8974359,4385.12820513,4622.56410256,4118.46153846,4651.79487179,4782.05128205,4697.94871795,4758.46153846,4442.56410256,4555.8974359,4475.38461538,4427.69230769,1695.0,1662.0,12.581,0.0,0.0,0.0,0.0,mike,0
70.0,4760.0,4624.1025641,4684.1025641,4390.76923077,4633.84615385,4124.61538462,4661.53846154,4787.17948718,4696.92307692,4748.20512821,4446.66666667,4561.02564103,4475.38461538,4427.69230769,1695.0,1662.0,12.593,0.0,0.0,0.0,0.0,mike,0
71.0,4766.66666667,4630.25641026,4690.76923077,4398.97435897,4636.92307692,4128.20512821,4669.74358974,4797.94871795,4705.12820513,4762.05128205,4446.66666667,4562.05128205,4475.38461538,4427.17948718,1695.0,1662.0,12.596,0.0,0.0,0.0,0.0,mike,0
72.0,4763.58974359,4628.20512821,4689.74358974,4397.43589744,4632.82051282,4128.71794872,4669.23076923,4797.94871795,4706.15384615,4769.23076923,4445.64102564,4557.94871795,4475.38461538,4428.71794872,1694.0,1662.0,12.603,0.0,0.0,0.0,0.0,mike,0
73.0,4755.8974359,4620.0,4687.17948718,4392.30769231,4630.76923077,4124.61538462,4658.97435897,4786.66666667,4695.38461538,4752.30769231,4444.1025641,4554.87179487,4468.71794872,4426.15384615,1694.0,1662.0,12.611,0.0,0.0,0.0,0.0,mike,0
74.0,4749.23076923,4613.84615385,4683.58974359,4384.1025641,4633.84615385,4118.46153846,4648.20512821,4779.48717949,4688.71794872,4743.58974359,4441.53846154,4553.33333333,4464.1025641,4420.51282051,1693.0,1661.0,12.619,0.0,0.0,0.0,0.0,mike,0
75.0,4749.23076923,4619.48717949,4685.12820513,4381.53846154,4632.82051282,4120.51282051,4651.28205128,4779.48717949,4693.33333333,4751.79487179,4445.64102564,4560.0,4468.20512821,4421.53846154,1695.0,1662.0,12.627,0.0,0.0,0.0,0.0,mike,0
76.0,4755.8974359,4630.25641026,4694.87179487,4393.84615385,4626.15384615,4128.20512821,4664.1025641,4788.20512821,4704.1025641,4762.56410256,4457.94871795,4571.28205128,4480.0,4429.74358974,1694.0,1661.0,12.635,0.0,0.0,0.0,0.0,mike,0
77.0,4752.82051282,4625.12820513,4691.79487179,4392.30769231,4631.28205128,4125.64102564,4665.64102564,4795.38461538,4704.1025641,4766.15384615,4462.56410256,4571.79487179,4485.64102564,4436.92307692,1693.0,1663.0,12.643,0.0,0.0,0.0,0.0,mike,0
78.0,4747.17948718,4616.92307692,4684.1025641,4379.48717949,4641.53846154,4122.05128205,4660.0,4794.87179487,4704.61538462,4763.07692308,4464.1025641,4567.17948718,4487.17948718,4441.53846154,1694.0,1662.0,12.651,0.0,0.0,0.0,0.0,mike,0
79.0,4753.84615385,4628.71794872,4696.92307692,4391.28205128,4637.94871795,4131.79487179,4668.71794872,4800.0,4718.97435897,4774.87179487,4475.38461538,4578.46153846,4494.35897436,4447.69230769,1693.0,1662.0,12.658,0.0,0.0,0.0,0.0,mike,0
80.0,4756.41025641,4634.87179487,4703.58974359,4400.0,4629.74358974,4131.79487179,4672.82051282,4804.1025641,4714.35897436,4781.53846154,4474.87179487,4582.05128205,4491.79487179,4446.15384615,1693.0,1661.0,12.666,0.0,0.0,0.0,0.0,mike,0
81.0,4748.71794872,4623.58974359,4690.25641026,4385.64102564,4631.28205128,4121.02564103,4664.1025641,4792.82051282,4694.87179487,4761.53846154,4460.51282051,4570.76923077,4477.43589744,4436.41025641,1693.0,1663.0,12.674,0.0,0.0,0.0,0.0,mike,0
82.0,4742.56410256,4615.8974359,4683.07692308,4378.97435897,4632.30769231,4122.56410256,4662.05128205,4783.07692308,4691.28205128,4746.15384615,4451.79487179,4564.1025641,4465.64102564,4427.17948718,1694.0,1662.0,12.683,0.0,0.0,0.0,0.0,mike,0
83.0,4737.94871795,4609.74358974,4683.07692308,4381.53846154,4630.76923077,4130.25641026,4662.05128205,4782.56410256,4691.28205128,4751.79487179,4444.61538462,4559.48717949,4457.94871795,4417.43589744,1694.0,1662.0,12.689,0.0,0.0,0.0,0.0,mike,0
84.0,4730.25641026,4604.61538462,4677.43589744,4376.41025641,4627.69230769,4125.64102564,4656.41025641,4780.51282051,4684.1025641,4750.25641026,4440.51282051,4550.25641026,4455.38461538,4412.82051282,1694.0,1661.0,12.698,0.0,0.0,0.0,0.0,mike,0
85.0,4732.82051282,4609.23076923,4677.94871795,4374.35897436,4620.51282051,4116.92307692,4655.38461538,4783.07692308,4688.71794872,4743.58974359,4451.28205128,4552.82051282,4462.05128205,4419.48717949,1693.0,1662.0,12.705,0.0,0.0,0.0,0.0,mike,0
86.0,4747.17948718,4618.46153846,4688.71794872,4384.1025641,4627.17948718,4126.15384615,4669.74358974,4798.97435897,4706.66666667,4764.1025641,4468.71794872,4569.74358974,4475.8974359,4432.30769231,1695.0,1662.0,12.714,0.0,0.0,0.0,0.0,mike,0
87.0,4752.30769231,4619.48717949,4691.28205128,4387.17948718,4636.41025641,4136.92307692,4678.46153846,4808.20512821,4714.35897436,4785.64102564,4474.87179487,4574.35897436,4485.64102564,4439.48717949,1694.0,1662.0,12.721,0.0,0.0,0.0,0.0,mike,0
88.0,4746.66666667,4614.87179487,4688.20512821,4384.61538462,4632.30769231,4125.64102564,4668.71794872,4801.02564103,4709.74358974,4773.84615385,4473.84615385,4569.23076923,4488.20512821,4442.05128205,1695.0,1664.0,12.728,0.0,0.0,0.0,0.0,mike,0
89.0,4752.82051282,4622.05128205,4692.82051282,4388.20512821,4633.33333333,4120.0,4667.17948718,4803.07692308,4708.20512821,4767.17948718,4476.41025641,4578.97435897,4489.23076923,4444.1025641,1695.0,1661.0,12.736,0.0,0.0,0.0,0.0,mike,0
90.0,4768.71794872,4634.87179487,4701.02564103,4399.48717949,4640.51282051,4141.02564103,4682.05128205,4813.33333333,4713.33333333,4782.05128205,4481.02564103,4588.71794872,4492.82051282,4445.64102564,1694.0,1662.0,12.745,0.0,0.0,0.0,0.0,mike,0
91.0,4765.12820513,4632.30769231,4695.8974359,4400.0,4632.82051282,4142.05128205,4678.46153846,4805.12820513,4708.20512821,4778.97435897,4477.94871795,4576.92307692,4489.74358974,4443.58974359,1695.0,1662.0,12.753,0.0,0.0,0.0,0.0,mike,0
92.0,4751.79487179,4623.07692308,4685.64102564,4388.20512821,4628.71794872,4117.43589744,4660.51282051,4791.28205128,4699.48717949,4761.02564103,4474.35897436,4571.28205128,4481.02564103,4440.51282051,1695.0,1662.0,12.76,0.0,0.0,0.0,0.0,mike,0
93.0,4758.46153846,4628.20512821,4688.20512821,4388.20512821,4642.56410256,4121.53846154,4665.12820513,4794.35897436,4701.53846154,4761.53846154,4477.43589744,4583.58974359,4480.0,4444.1025641,1696.0,1661.0,12.769,0.0,0.0,0.0,0.0,mike,0
94.0,4765.12820513,4628.71794872,4693.84615385,4396.92307692,4641.02564103,4142.56410256,4675.38461538,4797.94871795,4698.97435897,4766.15384615,4475.8974359,4581.53846154,4480.51282051,4445.64102564,1696.0,1661.0,12.775,0.0,0.0,0.0,0.0,mike,0
95.0,4755.38461538,4618.97435897,4691.79487179,4397.94871795,4630.76923077,4140.51282051,4676.92307692,4794.35897436,4692.82051282,4763.07692308,4471.28205128,4568.71794872,4472.82051282,4442.05128205,1696.0,1661.0,12.783,0.0,0.0,0.0,0.0,mike,0
96.0,4747.17948718,4618.97435897,4688.20512821,4389.23076923,4628.71794872,4131.28205128,4674.87179487,4795.8974359,4693.33333333,4764.1025641,4471.79487179,4568.20512821,4470.76923077,4437.43589744,1696.0,1661.0,12.791,0.0,0.0,0.0,0.0,mike,0
97.0,4747.69230769,4619.48717949,4685.64102564,4380.51282051,4631.79487179,4129.23076923,4666.66666667,4795.38461538,4695.8974359,4766.15384615,4471.79487179,4570.76923077,4473.84615385,4430.76923077,1696.0,1661.0,12.799,0.0,0.0,0.0,0.0,mike,0
98.0,4750.76923077,4616.41025641,4685.12820513,4381.02564103,4636.41025641,4125.12820513,4661.53846154,4794.35897436,4699.48717949,4767.69230769,4471.79487179,4569.23076923,4475.38461538,4432.82051282,1694.0,1662.0,12.807,0.0,0.0,0.0,0.0,mike,0
99.0,4751.79487179,4623.07692308,4688.71794872,4383.07692308,4636.41025641,4122.05128205,4663.07692308,4794.87179487,4704.61538462,4768.71794872,4475.38461538,4569.23076923,4477.94871795,4437.94871795,1695.0,1661.0,12.814,0.0,0.0,0.0,0.0,mike,0
100.0,4751.79487179,4629.23076923,4692.30769231,4383.07692308,4636.92307692,4125.12820513,4665.12820513,4793.84615385,4701.02564103,4765.64102564,4476.92307692,4569.74358974,4479.48717949,4434.35897436,1694.0,1663.0,12.822,0.0,0.0,0.0,0.0,mike,0
101.0,4749.23076923,4621.53846154,4688.71794872,4380.0,4632.30769231,4123.07692308,4662.56410256,4795.38461538,4695.38461538,4764.1025641,4474.35897436,4569.74358974,4475.8974359,4431.28205128,1694.0,1662.0,12.831,0.0,0.0,0.0,0.0,mike,0
102.0,4749.23076923,4615.38461538,4685.64102564,4382.05128205,4618.97435897,4118.46153846,4660.0,4793.84615385,4694.87179487,4767.17948718,4474.87179487,4569.74358974,4475.38461538,4435.8974359,1694.0,1663.0,12.839,0.0,0.0,0.0,0.0,mike,0
103.0,4749.23076923,4618.97435897,4688.71794872,4383.07692308,4623.07692308,4122.05128205,4662.56410256,4784.61538462,4687.17948718,4766.66666667,4476.41025641,4569.23076923,4477.43589744,4436.41025641,1695.0,1663.0,12.846,0.0,0.0,0.0,0.0,mike,0
104.0,4745.64102564,4616.92307692,4687.69230769,4376.41025641,4640.51282051,4126.15384615,4665.12820513,4776.92307692,4677.43589744,4756.41025641,4474.87179487,4569.74358974,4471.79487179,4429.74358974,1694.0,1663.0,12.854,0.0,0.0,0.0,0.0,mike,0
105.0,4743.07692308,4611.28205128,4682.56410256,4371.28205128,4632.82051282,4119.48717949,4661.53846154,4778.46153846,4681.53846154,4756.41025641,4472.30769231,4570.76923077,4468.20512821,4427.17948718,1695.0,1663.0,12.861,0.0,0.0,0.0,0.0,mike,0
106.0,4745.64102564,4613.33333333,4681.53846154,4376.92307692,4612.30769231,4112.82051282,4657.43589744,4783.07692308,4690.76923077,4768.20512821,4472.30769231,4568.71794872,4472.82051282,4431.28205128,1694.0,1663.0,12.87,0.0,0.0,0.0,0.0,mike,0
107.0,4754.87179487,4617.43589744,4690.25641026,4384.61538462,4612.30769231,4111.79487179,4659.48717949,4784.1025641,4688.71794872,4770.76923077,4478.46153846,4569.74358974,4475.8974359,4437.94871795,1695.0,1664.0,12.878,0.0,0.0,0.0,0.0,mike,0
108.0,4764.61538462,4618.46153846,4700.0,4384.1025641,4628.71794872,4116.92307692,4661.53846154,4783.58974359,4686.66666667,4762.05128205,4487.17948718,4578.97435897,4474.35897436,4445.12820513,1695.0,1662.0,12.885,0.0,0.0,0.0,0.0,mike,0
109.0,4769.74358974,4619.48717949,4698.46153846,4379.48717949,4644.61538462,4125.12820513,4662.05128205,4786.15384615,4688.71794872,4756.41025641,4490.25641026,4580.51282051,4474.87179487,4447.69230769,1694.0,1663.0,12.893,0.0,0.0,0.0,0.0,mike,0
110.0,4764.61538462,4612.82051282,4687.17948718,4376.41025641,4636.41025641,4116.41025641,4653.33333333,4781.53846154,4680.0,4751.28205128,4486.15384615,4569.23076923,4472.82051282,4434.87179487,1695.0,1663.0,12.9,0.0,0.0,0.0,0.0,mike,0
111.0,4765.64102564,4607.69230769,4684.1025641,4378.46153846,4620.51282051,4104.61538462,4646.15384615,4775.38461538,4674.87179487,4752.30769231,4490.25641026,4565.64102564,4475.38461538,4425.12820513,1695.0,1662.0,12.908,0.0,0.0,0.0,0.0,mike,0
112.0,4783.58974359,4617.94871795,4691.28205128,4385.64102564,4627.69230769,4119.48717949,4658.46153846,4786.15384615,4685.64102564,4763.58974359,4505.12820513,4574.35897436,4489.23076923,4439.48717949,1695.0,1662.0,12.916,0.0,0.0,0.0,0.0,mike,0
113.0,4793.84615385,4623.07692308,4692.82051282,4386.66666667,4626.15384615,4130.25641026,4665.12820513,4793.33333333,4690.76923077,4766.15384615,4510.25641026,4576.41025641,4493.33333333,4445.64102564,1695.0,1663.0,12.924,0.0,0.0,0.0,0.0,mike,0
114.0,4790.76923077,4617.94871795,4688.20512821,4382.56410256,4616.92307692,4114.87179487,4652.30769231,4783.07692308,4682.05128205,4762.56410256,4503.58974359,4569.74358974,4489.23076923,4433.33333333,1696.0,1662.0,12.932,0.0,0.0,0.0,0.0,mike,0
115.0,4792.30769231,4615.38461538,4684.61538462,4380.51282051,4621.02564103,4104.61538462,4644.1025641,4774.87179487,4675.38461538,4760.51282051,4501.53846154,4567.69230769,4484.1025641,4428.20512821,1695.0,1662.0,12.941,0.0,0.0,0.0,0.0,mike,0
116.0,4797.43589744,4610.76923077,4680.0,4380.0,4617.43589744,4105.64102564,4647.69230769,4778.46153846,4675.38461538,4754.35897436,4506.15384615,4567.69230769,4478.97435897,4430.76923077,1696.0,1662.0,12.947,0.0,0.0,0.0,0.0,mike,0
117.0,4793.84615385,4607.69230769,4678.46153846,4378.46153846,4615.8974359,4109.74358974,4652.30769231,4780.0,4677.94871795,4748.20512821,4505.64102564,4567.69230769,4479.48717949,4429.23076923,1695.0,1661.0,12.955,0.0,0.0,0.0,0.0,mike,0
118.0,4792.30769231,4613.33333333,4680.0,4378.46153846,4634.87179487,4117.94871795,4658.97435897,4780.51282051,4684.61538462,4751.79487179,4504.1025641,4567.17948718,4487.69230769,4429.23076923,1695.0,1663.0,12.963,0.0,0.0,0.0,0.0,mike,0
119.0,4805.12820513,4616.41025641,4685.64102564,4381.53846154,4640.51282051,4125.12820513,4665.64102564,4787.17948718,4688.20512821,4762.56410256,4507.17948718,4571.28205128,4492.82051282,4431.28205128,1696.0,1662.0,12.971,0.0,0.0,0.0,0.0,mike,0
120.0,4811.28205128,4614.35897436,4688.71794872,4384.1025641,4621.53846154,4121.53846154,4660.0,4789.23076923,4686.15384615,4768.71794872,4507.69230769,4572.82051282,4490.25641026,4429.74358974,1695.0,1663.0,12.98,0.0,0.0,0.0,0.0,mike,0
121.0,4800.51282051,4609.23076923,4679.48717949,4380.0,4611.79487179,4108.71794872,4648.71794872,4783.07692308,4682.05128205,4766.15384615,4504.61538462,4562.56410256,4482.56410256,4428.20512821,1695.0,1662.0,12.988,0.0,0.0,0.0,0.0,mike,0
122.0,4795.8974359,4597.94871795,4669.74358974,4371.28205128,4614.87179487,4098.46153846,4643.07692308,4775.8974359,4676.92307692,4758.46153846,4500.51282051,4553.33333333,4474.87179487,4425.64102564,1694.0,1662.0,12.994,0.0,0.0,0.0,0.0,mike,0
123.0,4810.76923077,4603.07692308,4680.0,4373.84615385,4622.56410256,4108.71794872,4651.79487179,4785.64102564,4682.05128205,4761.02564103,4504.61538462,4566.66666667,4484.61538462,4427.17948718,1695.0,1663.0,13.002,0.0,0.0,0.0,0.0,mike,0
124.0,4822.05128205,4618.97435897,4693.84615385,4386.15384615,4622.56410256,4127.17948718,4665.12820513,4796.41025641,4692.30769231,4769.74358974,4512.30769231,4577.43589744,4493.33333333,4433.33333333,1695.0,1662.0,13.012,0.0,0.0,0.0,0.0,mike,0
125.0,4813.84615385,4612.82051282,4686.66666667,4385.64102564,4615.8974359,4123.07692308,4661.02564103,4785.64102564,4684.1025641,4758.97435897,4506.66666667,4563.07692308,4479.48717949,4427.69230769,1694.0,1663.0,13.018,0.0,0.0,0.0,0.0,mike,0
126.0,4801.53846154,4596.92307692,4670.76923077,4370.25641026,4617.94871795,4108.20512821,4647.17948718,4774.35897436,4668.71794872,4743.58974359,4491.79487179,4550.25641026,4469.23076923,4418.46153846,1694.0,1663.0,13.026,0.0,0.0,0.0,0.0,mike,0
127.0,4798.46153846,4593.33333333,4665.64102564,4363.58974359,4617.94871795,4102.05128205,4645.64102564,4781.02564103,4669.74358974,4748.71794872,4488.20512821,4551.79487179,4471.28205128,4417.43589744,1694.0,1663.0,13.033,0.0,0.0,0.0,0.0,mike,0
128.0,4812.30769231,4604.61538462,4678.97435897,4378.97435897,4621.02564103,4111.28205128,4662.05128205,4795.38461538,4686.66666667,4767.17948718,4502.05128205,4561.02564103,4475.8974359,4426.66666667,1694.0,1663.0,13.041,0.0,0.0,0.0,0.0,mike,0
0.0,4828.71794872,4617.43589744,4695.8974359,4395.8974359,4632.82051282,4126.15384615,4675.38461538,4800.0,4697.43589744,4778.97435897,4513.84615385,4574.35897436,4485.64102564,4440.51282051,1693.0,1663.0,13.049,0.0,0.0,0.0,0.0,mike,0
1.0,4831.28205128,4618.97435897,4695.38461538,4394.35897436,4633.84615385,4125.12820513,4671.79487179,4797.94871795,4693.84615385,4774.87179487,4512.30769231,4576.41025641,4492.82051282,4444.61538462,1694.0,1662.0,13.057,0.0,0.0,0.0,0.0,mike,0
2.0,4828.71794872,4614.35897436,4688.20512821,4387.17948718,4624.1025641,4118.97435897,4663.07692308,4797.43589744,4688.71794872,4765.64102564,4506.15384615,4570.25641026,4486.15384615,4435.8974359,1692.0,1663.0,13.065,0.0,0.0,0.0,0.0,mike,0
3.0,4827.69230769,4609.74358974,4690.25641026,4385.64102564,4632.30769231,4124.1025641,4664.61538462,4794.35897436,4686.15384615,4764.61538462,4508.20512821,4571.79487179,4481.02564103,4434.87179487,1694.0,1663.0,13.074,0.0,0.0,0.0,0.0,mike,0
4.0,4827.69230769,4604.61538462,4693.33333333,4384.61538462,4636.41025641,4124.1025641,4666.66666667,4786.66666667,4681.53846154,4767.17948718,4511.28205128,4574.35897436,4486.15384615,4442.56410256,1693.0,1663.0,13.08,0.0,0.0,0.0,0.0,mike,0
5.0,4828.71794872,4605.12820513,4692.82051282,4385.12820513,4622.56410256,4112.82051282,4660.0,4781.02564103,4681.02564103,4762.05128205,4509.23076923,4571.79487179,4491.28205128,4444.1025641,1694.0,1664.0,13.089,0.0,0.0,0.0,0.0,mike,0
6.0,4827.69230769,4606.15384615,4689.23076923,4382.56410256,4622.56410256,4108.71794872,4656.41025641,4781.53846154,4685.12820513,4762.05128205,4508.71794872,4571.28205128,4487.69230769,4438.46153846,1693.0,1662.0,13.097,0.0,0.0,0.0,0.0,mike,0
7.0,4826.15384615,4606.15384615,4687.69230769,4383.58974359,4633.33333333,4115.38461538,4662.56410256,4789.23076923,4687.69230769,4771.79487179,4509.74358974,4572.82051282,4483.58974359,4438.97435897,1694.0,1664.0,13.104,0.0,0.0,0.0,0.0,mike,0
8.0,4827.69230769,4610.76923077,4692.30769231,4393.84615385,4635.38461538,4120.51282051,4668.71794872,4795.38461538,4689.74358974,4773.84615385,4509.23076923,4574.35897436,4484.61538462,4442.05128205,1694.0,1663.0,13.112,0.0,0.0,0.0,0.0,mike,0
9.0,4830.76923077,4609.74358974,4696.41025641,4395.38461538,4626.66666667,4119.48717949,4665.64102564,4788.20512821,4687.17948718,4767.17948718,4510.25641026,4573.84615385,4481.02564103,4438.46153846,1694.0,1664.0,13.12,0.0,0.0,0.0,0.0,mike,0
10.0,4825.64102564,4600.0,4690.25641026,4383.07692308,4621.53846154,4115.38461538,4657.94871795,4777.94871795,4675.38461538,4760.0,4510.25641026,4571.28205128,4474.87179487,4429.23076923,1694.0,1664.0,13.128,0.0,0.0,0.0,0.0,mike,0
11.0,4816.92307692,4598.46153846,4684.1025641,4380.0,4628.20512821,4111.79487179,4651.79487179,4780.51282051,4674.35897436,4763.58974359,4508.20512821,4570.25641026,4476.92307692,4427.17948718,1694.0,1665.0,13.135,0.0,0.0,0.0,0.0,mike,0
12.0,4813.84615385,4601.02564103,4684.1025641,4383.58974359,4629.23076923,4106.66666667,4651.28205128,4784.1025641,4684.1025641,4766.15384615,4511.79487179,4568.71794872,4477.94871795,4429.74358974,1696.0,1664.0,13.143,0.0,0.0,0.0,0.0,mike,0
13.0,4815.38461538,4602.05128205,4687.17948718,4381.53846154,4617.94871795,4108.20512821,4656.92307692,4787.17948718,4685.64102564,4761.53846154,4519.48717949,4570.25641026,4477.94871795,4430.25641026,1693.0,1664.0,13.152,0.0,0.0,0.0,0.0,mike,0
14.0,4816.92307692,4606.15384615,4693.33333333,4385.64102564,4615.8974359,4119.48717949,4663.58974359,4794.35897436,4686.66666667,4769.23076923,4522.56410256,4578.46153846,4487.17948718,4437.94871795,1695.0,1665.0,13.159,0.0,0.0,0.0,0.0,mike,0
15.0,4816.41025641,4605.12820513,4697.43589744,4395.38461538,4629.23076923,4124.1025641,4667.69230769,4802.56410256,4695.38461538,4785.12820513,4522.56410256,4586.66666667,4492.30769231,4444.61538462,1695.0,1663.0,13.166,0.0,0.0,0.0,0.0,mike,0
16.0,4815.8974359,4601.02564103,4692.30769231,4392.30769231,4631.79487179,4118.97435897,4668.71794872,4808.20512821,4698.46153846,4786.66666667,4523.58974359,4585.64102564,4490.25641026,4444.1025641,1695.0,1664.0,13.174,0.0,0.0,0.0,0.0,mike,0
17.0,4810.76923077,4602.05128205,4681.53846154,4382.05128205,4628.20512821,4118.46153846,4664.61538462,4805.64102564,4692.82051282,4778.97435897,4525.64102564,4577.94871795,4490.25641026,4443.58974359,1695.0,1663.0,13.182,0.0,0.0,0.0,0.0,mike,0
18.0,4801.02564103,4599.48717949,4675.8974359,4379.48717949,4630.76923077,4121.02564103,4658.97435897,4793.33333333,4684.61538462,4770.25641026,4521.02564103,4569.74358974,4484.1025641,4438.97435897,1695.0,1663.0,13.19,0.0,0.0,0.0,0.0,mike,0
19.0,4794.35897436,4595.8974359,4677.43589744,4383.58974359,4624.61538462,4116.41025641,4657.43589744,4785.12820513,4682.05128205,4763.58974359,4514.87179487,4567.69230769,4474.35897436,4429.74358974,1695.0,1663.0,13.199,0.0,0.0,0.0,0.0,mike,0
20.0,4791.28205128,4597.94871795,4679.48717949,4384.1025641,4613.84615385,4107.17948718,4656.41025641,4782.56410256,4678.46153846,4762.05128205,4515.38461538,4568.20512821,4475.38461538,4426.66666667,1695.0,1664.0,13.205,0.0,0.0,0.0,0.0,mike,0
21.0,4794.35897436,4603.07692308,4681.02564103,4383.58974359,4619.48717949,4109.74358974,4657.94871795,4781.53846154,4677.43589744,4764.1025641,4521.53846154,4569.74358974,4483.07692308,4431.79487179,1695.0,1663.0,13.213,0.0,0.0,0.0,0.0,mike,0
22.0,4797.94871795,4603.58974359,4680.51282051,4382.56410256,4631.79487179,4117.94871795,4663.58974359,4784.1025641,4681.53846154,4765.64102564,4523.58974359,4571.28205128,4481.53846154,4432.30769231,1694.0,1663.0,13.221,0.0,0.0,0.0,0.0,mike,0
23.0,4790.25641026,4601.02564103,4676.92307692,4381.53846154,4632.30769231,4114.35897436,4663.58974359,4784.61538462,4682.56410256,4767.17948718,4515.8974359,4568.20512821,4474.87179487,4427.69230769,1696.0,1663.0,13.229,0.0,0.0,0.0,0.0,mike,0
24.0,4780.0,4599.48717949,4675.8974359,4384.61538462,4624.61538462,4105.64102564,4657.94871795,4783.07692308,4675.8974359,4763.58974359,4508.71794872,4567.17948718,4472.82051282,4427.17948718,1695.0,1663.0,13.238,0.0,0.0,0.0,0.0,mike,0
25.0,4782.05128205,4601.02564103,4677.43589744,4385.64102564,4616.92307692,4104.61538462,4651.79487179,4778.97435897,4670.25641026,4762.56410256,4508.71794872,4566.66666667,4474.35897436,4429.74358974,1694.0,1662.0,13.245,0.0,0.0,0.0,0.0,mike,0
26.0,4780.51282051,4602.05128205,4673.33333333,4381.53846154,4613.84615385,4105.12820513,4645.64102564,4773.33333333,4670.76923077,4761.02564103,4506.66666667,4560.51282051,4474.35897436,4426.66666667,1694.0,1662.0,13.253,0.0,0.0,0.0,0.0,mike,0
27.0,4770.76923077,4599.48717949,4670.76923077,4379.48717949,4620.0,4104.61538462,4649.23076923,4773.84615385,4670.25641026,4754.35897436,4505.64102564,4560.0,4472.30769231,4423.58974359,1694.0,1662.0,13.26,0.0,0.0,0.0,0.0,mike,0
28.0,4772.82051282,4598.97435897,4678.46153846,4381.53846154,4625.64102564,4113.33333333,4660.0,4777.94871795,4672.82051282,4754.87179487,4514.35897436,4569.23076923,4475.38461538,4433.33333333,1694.0,1662.0,13.269,0.0,0.0,0.0,0.0,mike,0
29.0,4781.53846154,4609.23076923,4688.71794872,4388.20512821,4631.28205128,4121.53846154,4666.66666667,4787.17948718,4683.58974359,4770.76923077,4526.15384615,4581.02564103,4485.64102564,4445.64102564,1694.0,1660.0,13.277,0.0,0.0,0.0,0.0,mike,0
30.0,4782.05128205,4618.46153846,4687.69230769,4395.8974359,4635.38461538,4115.8974359,4664.61538462,4797.43589744,4690.76923077,4783.07692308,4526.66666667,4586.15384615,4493.33333333,4445.64102564,1694.0,1662.0,13.284,0.0,0.0,0.0,0.0,mike,0
31.0,4778.97435897,4610.25641026,4680.51282051,4392.82051282,4626.15384615,4106.15384615,4655.8974359,4795.38461538,4683.58974359,4776.41025641,4522.05128205,4578.46153846,4488.71794872,4441.53846154,1694.0,1661.0,13.292,0.0,0.0,0.0,0.0,mike,0
32.0,4778.46153846,4603.58974359,4677.94871795,4386.15384615,4624.61538462,4105.12820513,4649.74358974,4784.61538462,4678.46153846,4766.66666667,4524.1025641,4570.25641026,4484.1025641,4443.07692308,1693.0,1661.0,13.303,0.0,0.0,0.0,0.0,mike,0
33.0,4781.02564103,4608.20512821,4677.43589744,4384.61538462,4640.0,4107.17948718,4650.25641026,4781.02564103,4681.53846154,4765.12820513,4525.64102564,4571.79487179,4487.17948718,4444.61538462,1695.0,1661.0,13.307,0.0,0.0,0.0,0.0,mike,0
34.0,4779.48717949,4606.15384615,4672.82051282,4383.07692308,4644.61538462,4106.15384615,4649.74358974,4782.56410256,4677.94871795,4767.69230769,4522.05128205,4572.82051282,4491.28205128,4443.07692308,1693.0,1661.0,13.317,0.0,0.0,0.0,0.0,mike,0
35.0,4771.28205128,4598.46153846,4667.69230769,4381.02564103,4635.38461538,4105.12820513,4647.69230769,4778.97435897,4669.23076923,4766.66666667,4521.53846154,4567.17948718,4484.61538462,4442.05128205,1693.0,1662.0,13.323,0.0,0.0,0.0,0.0,mike,0
36.0,4767.17948718,4598.97435897,4664.61538462,4382.05128205,4632.30769231,4105.12820513,4652.82051282,4778.97435897,4671.28205128,4761.53846154,4522.56410256,4567.17948718,4476.41025641,4437.94871795,1694.0,1661.0,13.332,0.0,0.0,0.0,0.0,mike,0
37.0,4768.20512821,4601.02564103,4664.61538462,4381.53846154,4631.79487179,4108.71794872,4659.48717949,4781.02564103,4672.82051282,4755.8974359,4515.38461538,4569.74358974,4475.8974359,4431.79487179,1694.0,1662.0,13.338,0.0,0.0,0.0,0.0,mike,0
38.0,4757.94871795,4596.41025641,4662.56410256,4378.46153846,4621.02564103,4104.61538462,4652.82051282,4777.94871795,4665.64102564,4752.82051282,4505.12820513,4558.46153846,4468.71794872,4426.15384615,1694.0,1662.0,13.347,0.0,0.0,0.0,0.0,mike,0
39.0,4746.66666667,4594.87179487,4660.0,4373.84615385,4620.51282051,4095.8974359,4644.61538462,4776.92307692,4666.66666667,4758.46153846,4508.71794872,4550.25641026,4462.56410256,4424.1025641,1694.0,1663.0,13.354,0.0,0.0,0.0,0.0,mike,0
40.0,4747.17948718,4598.46153846,4662.05128205,4371.79487179,4638.46153846,4102.56410256,4651.28205128,4781.02564103,4673.84615385,4765.12820513,4518.97435897,4561.02564103,4471.28205128,4430.25641026,1695.0,1662.0,13.362,0.0,0.0,0.0,0.0,mike,0
41.0,4750.76923077,4601.53846154,4663.58974359,4374.87179487,4643.58974359,4110.76923077,4659.48717949,4784.1025641,4671.79487179,4767.17948718,4522.56410256,4571.79487179,4480.0,4438.46153846,1694.0,1662.0,13.371,0.0,0.0,0.0,0.0,mike,0
42.0,4748.71794872,4600.0,4663.58974359,4378.97435897,4631.28205128,4107.17948718,4653.33333333,4780.51282051,4670.25641026,4764.61538462,4520.51282051,4568.71794872,4474.87179487,4437.43589744,1695.0,1662.0,13.378,0.0,0.0,0.0,0.0,mike,0
43.0,4747.17948718,4597.43589744,4666.66666667,4382.05128205,4626.15384615,4102.05128205,4646.15384615,4778.97435897,4674.35897436,4762.05128205,4520.51282051,4565.12820513,4473.33333333,4432.30769231,1694.0,1661.0,13.386,0.0,0.0,0.0,0.0,mike,0
44.0,4745.64102564,4602.05128205,4669.23076923,4383.58974359,4631.79487179,4099.48717949,4647.69230769,4781.02564103,4670.76923077,4762.05128205,4521.53846154,4566.15384615,4477.94871795,4430.25641026,1695.0,1662.0,13.393,0.0,0.0,0.0,0.0,mike,0
45.0,4746.66666667,4607.17948718,4669.23076923,4382.05128205,4638.46153846,4098.97435897,4648.20512821,4782.56410256,4667.17948718,4762.05128205,4521.02564103,4565.64102564,4477.43589744,4434.35897436,1694.0,1661.0,13.401,0.0,0.0,0.0,0.0,mike,0
46.0,4746.66666667,4604.1025641,4671.79487179,4383.07692308,4638.46153846,4103.58974359,4649.23076923,4783.58974359,4675.38461538,4764.1025641,4523.07692308,4568.20512821,4477.43589744,4441.02564103,1694.0,1663.0,13.409,0.0,0.0,0.0,0.0,mike,0
47.0,4738.97435897,4600.51282051,4671.79487179,4383.58974359,4628.71794872,4107.17948718,4649.74358974,4784.1025641,4676.41025641,4766.66666667,4525.12820513,4571.79487179,4477.94871795,4442.56410256,1695.0,1662.0,13.417,0.0,0.0,0.0,0.0,mike,0
48.0,4729.23076923,4600.0,4665.64102564,4377.94871795,4626.66666667,4102.56410256,4646.15384615,4781.02564103,4664.1025641,4767.17948718,4522.56410256,4567.69230769,4475.38461538,4435.38461538,1693.0,1662.0,13.424,0.0,0.0,0.0,0.0,mike,0
49.0,4726.15384615,4600.0,4663.07692308,4374.87179487,4634.35897436,4097.94871795,4646.66666667,4777.94871795,4661.53846154,4765.12820513,4518.97435897,4558.46153846,4473.33333333,4429.74358974,1694.0,1662.0,13.432,0.0,0.0,0.0,0.0,mike,0
50.0,4726.15384615,4606.66666667,4669.74358974,4382.56410256,4633.33333333,4101.53846154,4651.28205128,4780.51282051,4671.79487179,4765.64102564,4521.53846154,4561.53846154,4474.87179487,4436.92307692,1693.0,1662.0,13.44,0.0,0.0,0.0,0.0,mike,0
51.0,4724.61538462,4612.82051282,4671.28205128,4386.15384615,4628.71794872,4105.12820513,4651.79487179,4782.56410256,4673.33333333,4767.17948718,4524.1025641,4568.20512821,4477.94871795,4441.53846154,1694.0,1662.0,13.448,0.0,0.0,0.0,0.0,mike,0
52.0,4716.41025641,4604.61538462,4658.46153846,4378.46153846,4629.74358974,4100.0,4644.1025641,4778.97435897,4664.1025641,4762.05128205,4520.0,4560.0,4475.38461538,4431.79487179,1692.0,1662.0,13.456,0.0,0.0,0.0,0.0,mike,0
53.0,4708.71794872,4595.38461538,4650.76923077,4372.30769231,4637.94871795,4096.41025641,4639.48717949,4776.92307692,4664.1025641,4761.02564103,4517.43589744,4549.23076923,4471.79487179,4421.53846154,1693.0,1662.0,13.464,0.0,0.0,0.0,0.0,mike,0
54.0,4713.33333333,4603.58974359,4660.0,4378.97435897,4638.46153846,4103.58974359,4647.69230769,4781.53846154,4675.8974359,4768.71794872,4521.53846154,4552.82051282,4474.35897436,4426.66666667,1692.0,1662.0,13.471,0.0,0.0,0.0,0.0,mike,0
55.0,4720.51282051,4615.38461538,4668.20512821,4388.71794872,4625.12820513,4106.66666667,4656.41025641,4785.64102564,4680.0,4772.82051282,4520.51282051,4563.07692308,4472.82051282,4436.92307692,1693.0,1662.0,13.479,0.0,0.0,0.0,0.0,mike,0
56.0,4719.48717949,4612.82051282,4665.64102564,4386.66666667,4623.07692308,4101.53846154,4650.76923077,4784.1025641,4674.87179487,4774.35897436,4512.30769231,4565.12820513,4463.58974359,4436.92307692,1692.0,1661.0,13.487,0.0,0.0,0.0,0.0,mike,0
57.0,4714.35897436,4604.61538462,4661.02564103,4377.94871795,4632.30769231,4101.02564103,4645.12820513,4779.48717949,4672.30769231,4774.87179487,4506.66666667,4562.56410256,4457.43589744,4433.33333333,1692.0,1663.0,13.495,0.0,0.0,0.0,0.0,mike,0
58.0,4720.51282051,4608.20512821,4666.66666667,4378.46153846,4640.0,4104.61538462,4657.43589744,4785.64102564,4676.92307692,4774.87179487,4509.74358974,4566.15384615,4460.0,4437.43589744,1693.0,1662.0,13.503,0.0,0.0,0.0,0.0,mike,0
59.0,4735.38461538,4619.48717949,4675.38461538,4389.23076923,4647.69230769,4107.69230769,4666.66666667,4796.92307692,4680.51282051,4781.02564103,4517.43589744,4574.87179487,4466.15384615,4446.66666667,1692.0,1662.0,13.51,0.0,0.0,0.0,0.0,mike,0
60.0,4727.69230769,4610.25641026,4669.23076923,4387.69230769,4648.20512821,4110.25641026,4655.8974359,4788.71794872,4672.82051282,4776.92307692,4511.28205128,4566.66666667,4457.94871795,4436.92307692,1693.0,1661.0,13.519,0.0,0.0,0.0,0.0,mike,0
61.0,4704.61538462,4589.23076923,4651.28205128,4370.76923077,4632.82051282,4105.12820513,4646.15384615,4771.28205128,4656.41025641,4754.87179487,4491.28205128,4545.12820513,4436.41025641,4412.30769231,1693.0,1662.0,13.526,0.0,0.0,0.0,0.0,mike,0
62.0,4697.94871795,4582.56410256,4643.58974359,4364.1025641,4622.05128205,4091.79487179,4646.66666667,4764.61538462,4644.61538462,4740.51282051,4475.8974359,4535.38461538,4422.56410256,4398.46153846,1693.0,1661.0,13.535,0.0,0.0,0.0,0.0,mike,0
63.0,4706.15384615,4590.25641026,4647.69230769,4373.33333333,4627.17948718,4089.74358974,4647.17948718,4765.64102564,4644.61538462,4747.69230769,4474.87179487,4536.92307692,4423.58974359,4398.46153846,1694.0,1661.0,13.542,0.0,0.0,0.0,0.0,mike,0
64.0,4712.82051282,4604.1025641,4654.87179487,4384.1025641,4633.84615385,4107.17948718,4654.35897436,4773.33333333,4658.46153846,4760.0,4486.15384615,4544.61538462,4432.30769231,4410.25641026,1694.0,1662.0,13.55,0.0,0.0,0.0,0.0,mike,0
65.0,4722.56410256,4610.76923077,4664.1025641,4386.15384615,4636.92307692,4111.28205128,4665.64102564,4785.12820513,4671.28205128,4766.66666667,4502.05128205,4554.35897436,4443.07692308,4425.64102564,1694.0,1661.0,13.557,0.0,0.0,0.0,0.0,mike,0
66.0,4728.20512821,4603.58974359,4667.17948718,4382.05128205,4632.30769231,4100.0,4660.0,4786.66666667,4670.25641026,4769.74358974,4508.20512821,4557.94871795,4448.20512821,4429.74358974,1695.0,1662.0,13.565,0.0,0.0,0.0,0.0,mike,0
67.0,4725.12820513,4597.43589744,4660.0,4380.51282051,4631.28205128,4096.41025641,4644.61538462,4780.51282051,4662.56410256,4767.69230769,4503.07692308,4555.38461538,4444.1025641,4426.15384615,1694.0,1662.0,13.573,0.0,0.0,0.0,0.0,mike,0
68.0,4728.71794872,4604.1025641,4659.48717949,4384.1025641,4635.8974359,4096.41025641,4645.64102564,4781.02564103,4664.1025641,4766.15384615,4505.12820513,4554.87179487,4444.61538462,4429.23076923,1695.0,1663.0,13.581,0.0,0.0,0.0,0.0,mike,0
69.0,4734.87179487,4610.76923077,4665.64102564,4386.15384615,4638.97435897,4098.46153846,4655.38461538,4782.05128205,4668.20512821,4767.69230769,4508.20512821,4558.97435897,4448.71794872,4431.28205128,1696.0,1661.0,13.589,0.0,0.0,0.0,0.0,mike,0
70.0,4728.20512821,4605.64102564,4661.53846154,4382.56410256,4633.33333333,4104.1025641,4654.35897436,4780.51282051,4664.61538462,4768.20512821,4498.97435897,4554.35897436,4445.64102564,4421.02564103,1695.0,1662.0,13.604,0.0,0.0,0.0,0.0,mike,0
71.0,4717.43589744,4600.51282051,4652.82051282,4380.51282051,4624.61538462,4102.56410256,4647.69230769,4777.94871795,4659.48717949,4764.61538462,4488.71794872,4542.56410256,4441.02564103,4411.28205128,1696.0,1662.0,13.606,0.0,0.0,0.0,0.0,mike,0
72.0,4715.8974359,4601.02564103,4653.84615385,4381.02564103,4631.28205128,4095.8974359,4648.20512821,4776.41025641,4661.53846154,4764.1025641,4490.25641026,4543.07692308,4442.05128205,4412.82051282,1696.0,1660.0,13.614,0.0,0.0,0.0,0.0,mike,0
73.0,4720.0,4602.05128205,4659.48717949,4382.56410256,4644.1025641,4098.46153846,4654.35897436,4783.58974359,4666.15384615,4767.69230769,4495.38461538,4552.82051282,4442.56410256,4415.8974359,1696.0,1661.0,13.62,0.0,0.0,0.0,0.0,mike,0
74.0,4722.05128205,4601.02564103,4662.05128205,4383.07692308,4647.69230769,4106.66666667,4657.43589744,4794.35897436,4665.64102564,4769.23076923,4492.82051282,4555.8974359,4441.02564103,4415.38461538,1695.0,1661.0,13.628,0.0,0.0,0.0,0.0,mike,0
75.0,4722.56410256,4602.56410256,4663.07692308,4382.56410256,4641.02564103,4105.64102564,4657.43589744,4794.35897436,4664.61538462,4767.69230769,4490.76923077,4550.76923077,4442.05128205,4416.41025641,1696.0,1662.0,13.636,0.0,0.0,0.0,0.0,mike,0
76.0,4718.97435897,4602.56410256,4656.41025641,4381.02564103,4636.41025641,4100.0,4651.28205128,4782.56410256,4662.05128205,4757.94871795,4490.25641026,4543.07692308,4436.41025641,4412.30769231,1694.0,1663.0,13.643,0.0,0.0,0.0,0.0,mike,0
77.0,4714.35897436,4598.97435897,4645.64102564,4378.46153846,4631.28205128,4095.8974359,4646.15384615,4768.71794872,4653.84615385,4746.15384615,4488.71794872,4534.87179487,4426.66666667,4403.07692308,1694.0,1664.0,13.651,0.0,0.0,0.0,0.0,mike,0
78.0,4717.43589744,4599.48717949,4646.15384615,4380.51282051,4619.48717949,4092.30769231,4646.15384615,4764.1025641,4653.33333333,4749.74358974,4489.23076923,4537.43589744,4430.76923077,4404.61538462,1692.0,1665.0,13.659,0.0,0.0,0.0,0.0,mike,0
79.0,4718.46153846,4600.51282051,4652.30769231,4382.05128205,4622.56410256,4092.30769231,4647.69230769,4771.79487179,4660.51282051,4761.53846154,4490.76923077,4547.17948718,4440.51282051,4411.79487179,1693.0,1667.0,13.667,0.0,0.0,0.0,0.0,mike,0
80.0,4717.94871795,4599.48717949,4658.97435897,4381.02564103,4635.8974359,4097.43589744,4652.30769231,4781.02564103,4664.1025641,4765.12820513,4497.94871795,4552.82051282,4443.07692308,4418.97435897,1693.0,1667.0,13.676,0.0,0.0,0.0,0.0,mike,0
81.0,4724.1025641,4605.12820513,4666.15384615,4386.66666667,4640.0,4100.0,4655.8974359,4783.58974359,4666.15384615,4772.30769231,4509.74358974,4564.61538462,4454.35897436,4429.74358974,1693.0,1668.0,13.683,0.0,0.0,0.0,0.0,mike,0
82.0,4726.66666667,4612.30769231,4669.23076923,4388.71794872,4640.0,4100.0,4655.38461538,4783.07692308,4668.20512821,4778.97435897,4512.82051282,4570.76923077,4464.1025641,4436.92307692,1692.0,1668.0,13.691,0.0,0.0,0.0,0.0,mike,0
83.0,4715.8974359,4604.61538462,4660.51282051,4380.0,4642.05128205,4097.94871795,4648.20512821,4780.0,4662.56410256,4771.79487179,4507.17948718,4559.48717949,4452.30769231,4428.71794872,1694.0,1668.0,13.699,0.0,0.0,0.0,0.0,mike,0
84.0,4701.53846154,4595.38461538,4649.74358974,4378.97435897,4627.17948718,4089.74358974,4637.94871795,4776.92307692,4659.48717949,4764.1025641,4503.58974359,4548.71794872,4439.48717949,4416.92307692,1692.0,1667.0,13.706,0.0,0.0,0.0,0.0,mike,0
85.0,4695.8974359,4601.02564103,4649.23076923,4386.15384615,4620.0,4092.82051282,4642.05128205,4781.02564103,4667.69230769,4764.61538462,4504.61538462,4552.82051282,4443.58974359,4417.43589744,1693.0,1667.0,13.714,0.0,0.0,0.0,0.0,mike,0
86.0,4690.76923077,4601.02564103,4648.20512821,4376.92307692,4636.92307692,4098.97435897,4649.74358974,4784.61538462,4670.25641026,4769.23076923,4509.23076923,4556.41025641,4448.20512821,4420.0,1693.0,1663.0,13.728,0.0,0.0,0.0,0.0,mike,0
87.0,4684.1025641,4591.28205128,4642.56410256,4364.61538462,4632.30769231,4086.66666667,4641.02564103,4780.51282051,4662.56410256,4776.92307692,4517.94871795,4550.76923077,4451.79487179,4418.46153846,1693.0,1664.0,13.73,0.0,0.0,0.0,0.0,mike,0
88.0,4686.66666667,4595.8974359,4643.58974359,4370.76923077,4618.46153846,4080.51282051,4634.87179487,4780.0,4662.05128205,4781.02564103,4523.58974359,4552.30769231,4461.53846154,4421.53846154,1695.0,1663.0,13.737,0.0,0.0,0.0,0.0,mike,0
89.0,4690.76923077,4603.58974359,4651.79487179,4376.92307692,4628.71794872,4092.82051282,4641.53846154,4781.53846154,4661.53846154,4772.30769231,4523.07692308,4555.8974359,4458.97435897,4426.15384615,1693.0,1664.0,13.745,0.0,0.0,0.0,0.0,mike,0
90.0,4684.1025641,4594.35897436,4651.28205128,4370.76923077,4637.43589744,4093.33333333,4643.58974359,4780.51282051,4652.82051282,4764.1025641,4520.0,4548.20512821,4446.66666667,4416.92307692,1695.0,1663.0,13.753,0.0,0.0,0.0,0.0,mike,0
91.0,4672.30769231,4582.05128205,4640.51282051,4364.1025641,4624.1025641,4083.58974359,4636.41025641,4776.41025641,4647.69230769,4758.46153846,4510.76923077,4537.94871795,4441.53846154,4404.1025641,1695.0,1662.0,13.761,0.0,0.0,0.0,0.0,mike,0
92.0,4673.33333333,4584.1025641,4635.38461538,4364.61538462,4621.53846154,4086.15384615,4633.33333333,4768.20512821,4648.71794872,4752.82051282,4506.15384615,4537.43589744,4442.56410256,4405.12820513,1695.0,1662.0,13.77,0.0,0.0,0.0,0.0,mike,0
93.0,4682.05128205,4593.33333333,4639.48717949,4367.69230769,4636.41025641,4092.30769231,4635.8974359,4767.17948718,4650.76923077,4759.48717949,4513.84615385,4542.05128205,4442.56410256,4411.79487179,1695.0,1661.0,13.776,0.0,0.0,0.0,0.0,mike,0
94.0,4685.12820513,4597.94871795,4644.61538462,4370.76923077,4634.35897436,4089.74358974,4640.0,4769.74358974,4656.41025641,4768.20512821,4515.38461538,4540.51282051,4445.64102564,4411.28205128,1696.0,1661.0,13.784,0.0,0.0,0.0,0.0,mike,0
95.0,4686.15384615,4597.94871795,4645.12820513,4374.87179487,4626.15384615,4088.71794872,4641.02564103,4766.15384615,4657.94871795,4767.17948718,4512.30769231,4539.48717949,4445.64102564,4409.23076923,1696.0,1660.0,13.792,0.0,0.0,0.0,0.0,mike,0
96.0,4696.92307692,4600.0,4646.66666667,4380.51282051,4632.82051282,4099.48717949,4644.61538462,4769.23076923,4654.87179487,4764.61538462,4516.92307692,4546.15384615,4443.58974359,4410.76923077,1696.0,1661.0,13.801,0.0,0.0,0.0,0.0,mike,0
97.0,4707.17948718,4604.61538462,4652.30769231,4387.17948718,4639.48717949,4111.28205128,4653.33333333,4782.56410256,4657.94871795,4768.20512821,4524.1025641,4554.87179487,4451.28205128,4415.38461538,1696.0,1660.0,13.808,0.0,0.0,0.0,0.0,mike,0
98.0,4699.48717949,4601.53846154,4651.28205128,4381.53846154,4632.30769231,4099.48717949,4647.17948718,4783.07692308,4660.51282051,4768.20512821,4522.05128205,4553.84615385,4456.92307692,4412.82051282,1695.0,1661.0,13.817,0.0,0.0,0.0,0.0,mike,0
99.0,4691.28205128,4596.92307692,4646.15384615,4370.25641026,4631.79487179,4085.12820513,4639.48717949,4773.33333333,4657.43589744,4762.56410256,4518.46153846,4548.20512821,4453.33333333,4409.23076923,1696.0,1660.0,13.823,0.0,0.0,0.0,0.0,mike,0
100.0,4701.53846154,4601.02564103,4648.71794872,4375.38461538,4645.64102564,4097.43589744,4651.28205128,4778.97435897,4661.02564103,4766.15384615,4528.20512821,4554.35897436,4457.94871795,4418.97435897,1694.0,1661.0,13.831,0.0,0.0,0.0,0.0,mike,0
101.0,4706.66666667,4605.12820513,4654.87179487,4383.07692308,4649.23076923,4105.64102564,4659.48717949,4785.64102564,4667.17948718,4780.0,4536.92307692,4561.02564103,4464.61538462,4428.20512821,1695.0,1660.0,13.84,0.0,0.0,0.0,0.0,mike,0
102.0,4696.41025641,4601.53846154,4649.74358974,4376.92307692,4643.07692308,4093.84615385,4647.17948718,4775.38461538,4661.53846154,4785.12820513,4527.69230769,4555.38461538,4461.02564103,4419.48717949,1693.0,1659.0,13.848,0.0,0.0,0.0,0.0,mike,0
103.0,4692.82051282,4597.43589744,4644.61538462,4373.84615385,4637.43589744,4087.69230769,4639.48717949,4769.74358974,4651.79487179,4777.43589744,4516.41025641,4549.74358974,4454.87179487,4408.71794872,1694.0,1660.0,13.855,0.0,0.0,0.0,0.0,mike,0
104.0,4707.17948718,4607.69230769,4654.35897436,4386.15384615,4629.23076923,4093.33333333,4647.69230769,4779.48717949,4658.46153846,4776.41025641,4523.58974359,4554.35897436,4455.38461538,4417.94871795,1693.0,1659.0,13.862,0.0,0.0,0.0,0.0,mike,0
105.0,4718.46153846,4617.43589744,4661.02564103,4391.79487179,4634.87179487,4101.02564103,4649.74358974,4784.61538462,4669.23076923,4782.56410256,4534.35897436,4564.1025641,4464.61538462,4430.25641026,1693.0,1661.0,13.87,0.0,0.0,0.0,0.0,mike,0
106.0,4718.46153846,4609.74358974,4653.33333333,4384.1025641,4652.82051282,4106.66666667,4649.23076923,4781.53846154,4667.69230769,4781.53846154,4537.94871795,4565.12820513,4473.84615385,4428.71794872,1692.0,1660.0,13.878,0.0,0.0,0.0,0.0,mike,0
107.0,4714.87179487,4599.48717949,4646.15384615,4378.97435897,4649.23076923,4096.92307692,4647.17948718,4780.0,4664.1025641,4778.97435897,4535.8974359,4558.46153846,4468.20512821,4424.1025641,1693.0,1661.0,13.886,0.0,0.0,0.0,0.0,mike,0
108.0,4711.28205128,4600.0,4646.15384615,4381.53846154,4630.76923077,4081.53846154,4635.8974359,4775.8974359,4663.58974359,4775.38461538,4527.69230769,4553.33333333,4458.97435897,4421.02564103,1693.0,1660.0,13.894,0.0,0.0,0.0,0.0,mike,0
109.0,4713.84615385,4600.0,4646.66666667,4379.48717949,4633.33333333,4085.12820513,4632.30769231,4766.15384615,4658.97435897,4769.23076923,4522.56410256,4552.30769231,4458.97435897,4416.92307692,1691.0,1662.0,13.902,0.0,0.0,0.0,0.0,mike,0
110.0,4715.8974359,4595.8974359,4644.1025641,4373.84615385,4637.43589744,4093.84615385,4643.58974359,4766.15384615,4655.38461538,4769.74358974,4521.53846154,4550.25641026,4457.43589744,4410.76923077,1693.0,1661.0,13.909,0.0,0.0,0.0,0.0,mike,0
111.0,4717.43589744,4599.48717949,4646.15384615,4380.0,4633.33333333,4095.38461538,4655.38461538,4776.41025641,4661.53846154,4780.51282051,4521.53846154,4550.76923077,4454.87179487,4415.38461538,1691.0,1661.0,13.917,0.0,0.0,0.0,0.0,mike,0
112.0,4725.64102564,4605.12820513,4652.30769231,4387.69230769,4638.97435897,4094.35897436,4656.41025641,4785.12820513,4667.69230769,4785.12820513,4525.12820513,4556.41025641,4461.02564103,4427.17948718,1693.0,1660.0,13.925,0.0,0.0,0.0,0.0,mike,0
113.0,4724.61538462,4597.43589744,4647.17948718,4378.46153846,4641.53846154,4091.79487179,4648.20512821,4778.97435897,4660.0,4774.35897436,4524.61538462,4554.87179487,4458.46153846,4421.53846154,1692.0,1660.0,13.933,0.0,0.0,0.0,0.0,mike,0
114.0,4710.25641026,4583.58974359,4635.38461538,4367.17948718,4637.94871795,4089.74358974,4642.56410256,4769.74358974,4650.76923077,4764.1025641,4519.48717949,4548.71794872,4446.15384615,4409.74358974,1692.0,1661.0,13.942,0.0,0.0,0.0,0.0,mike,0
115.0,4709.74358974,4584.61538462,4634.87179487,4370.76923077,4641.53846154,4086.66666667,4641.02564103,4771.28205128,4652.82051282,4763.07692308,4518.46153846,4543.58974359,4442.05128205,4410.25641026,1694.0,1660.0,13.948,0.0,0.0,0.0,0.0,mike,0
116.0,4716.92307692,4595.38461538,4638.46153846,4373.33333333,4635.8974359,4081.53846154,4636.41025641,4774.35897436,4653.84615385,4763.07692308,4520.51282051,4538.97435897,4444.1025641,4409.74358974,1694.0,1661.0,13.956,0.0,0.0,0.0,0.0,mike,0
117.0,4714.35897436,4598.97435897,4637.94871795,4373.33333333,4621.53846154,4085.64102564,4632.30769231,4768.71794872,4649.74358974,4762.56410256,4518.46153846,4538.97435897,4443.07692308,4405.12820513,1695.0,1662.0,13.964,0.0,0.0,0.0,0.0,mike,0
118.0,4714.35897436,4596.41025641,4636.41025641,4374.87179487,4623.07692308,4091.28205128,4630.76923077,4761.53846154,4645.12820513,4763.07692308,4517.43589744,4540.51282051,4442.05128205,4408.20512821,1694.0,1663.0,13.972,0.0,0.0,0.0,0.0,mike,0
119.0,4722.05128205,4598.97435897,4642.56410256,4375.8974359,4637.43589744,4088.71794872,4632.30769231,4762.05128205,4647.17948718,4766.15384615,4520.0,4544.1025641,4443.58974359,4411.79487179,1695.0,1662.0,13.98,0.0,0.0,0.0,0.0,mike,0
120.0,4724.1025641,4603.58974359,4651.79487179,4379.48717949,4649.23076923,4092.82051282,4643.07692308,4768.20512821,4654.35897436,4769.74358974,4523.58974359,4554.35897436,4449.23076923,4417.43589744,1694.0,1663.0,13.988,0.0,0.0,0.0,0.0,mike,0
121.0,4720.51282051,4602.56410256,4653.84615385,4382.05128205,4642.56410256,4096.92307692,4645.64102564,4770.76923077,4655.8974359,4768.71794872,4525.12820513,4558.46153846,4456.41025641,4422.56410256,1695.0,1663.0,13.995,0.0,0.0,0.0,0.0,mike,0
122.0,4718.46153846,4601.53846154,4651.79487179,4382.56410256,4632.30769231,4091.28205128,4641.02564103,4769.74358974,4652.30769231,4766.15384615,4526.15384615,4555.8974359,4459.48717949,4423.07692308,1694.0,1663.0,14.003,0.0,0.0,0.0,0.0,mike,0
123.0,4713.84615385,4602.05128205,4650.76923077,4382.56410256,4634.35897436,4091.79487179,4643.58974359,4768.71794872,4651.79487179,4767.69230769,4525.64102564,4555.8974359,4457.94871795,4422.56410256,1695.0,1663.0,14.011,0.0,0.0,0.0,0.0,mike,0
124.0,4704.1025641,4600.0,4648.71794872,4378.46153846,4634.35897436,4092.82051282,4644.61538462,4767.69230769,4650.76923077,4766.15384615,4524.1025641,4554.35897436,4454.35897436,4420.51282051,1694.0,1662.0,14.019,0.0,0.0,0.0,0.0,mike,0
125.0,4695.8974359,4598.46153846,4646.15384615,4374.87179487,4631.28205128,4092.30769231,4641.53846154,4765.12820513,4649.74358974,4769.23076923,4525.64102564,4552.82051282,4455.8974359,4416.41025641,1694.0,1663.0,14.027,0.0,0.0,0.0,0.0,mike,0
126.0,4692.30769231,4600.51282051,4646.15384615,4377.94871795,4639.48717949,4100.0,4641.02564103,4765.64102564,4654.87179487,4779.48717949,4527.17948718,4553.33333333,4457.43589744,4415.8974359,1695.0,1663.0,14.035,0.0,0.0,0.0,0.0,mike,0
127.0,4685.12820513,4598.97435897,4641.02564103,4375.8974359,4637.43589744,4098.97435897,4637.43589744,4766.66666667,4652.82051282,4775.38461538,4522.05128205,4543.07692308,4446.66666667,4414.35897436,1694.0,1663.0,14.043,0.0,0.0,0.0,0.0,mike,0
128.0,4678.97435897,4599.48717949,4640.0,4374.35897436,4626.15384615,4090.76923077,4635.8974359,4765.64102564,4645.64102564,4763.58974359,4521.02564103,4540.51282051,4443.58974359,4412.30769231,1695.0,1663.0,14.05,0.0,0.0,0.0,0.0,mike,0
0.0,4681.02564103,4606.66666667,4648.20512821,4382.56410256,4632.30769231,4101.02564103,4644.1025641,4768.20512821,4649.23076923,4765.64102564,4526.66666667,4552.30769231,4454.35897436,4418.46153846,1694.0,1664.0,14.058,0.0,0.0,0.0,0.0,mike,0
1.0,4672.82051282,4604.1025641,4643.58974359,4382.56410256,4636.41025641,4109.74358974,4646.66666667,4768.20512821,4650.25641026,4768.20512821,4523.58974359,4547.69230769,4451.28205128,4417.94871795,1695.0,1663.0,14.066,0.0,0.0,0.0,0.0,mike,0
2.0,4660.51282051,4598.97435897,4637.43589744,4375.8974359,4631.79487179,4103.58974359,4643.58974359,4766.15384615,4646.15384615,4764.61538462,4517.94871795,4533.84615385,4440.0,4410.76923077,1695.0,1664.0,14.074,0.0,0.0,0.0,0.0,mike,0
3.0,4658.97435897,4604.61538462,4642.05128205,4378.97435897,4634.87179487,4101.53846154,4639.48717949,4765.64102564,4646.15384615,4764.1025641,4521.02564103,4541.53846154,4442.56410256,4411.28205128,1695.0,1663.0,14.081,0.0,0.0,0.0,0.0,mike,0
4.0,4656.92307692,4609.23076923,4647.69230769,4383.07692308,4635.8974359,4104.1025641,4639.48717949,4766.15384615,4649.23076923,4762.56410256,4522.56410256,4552.82051282,4448.71794872,4415.8974359,1694.0,1662.0,14.089,0.0,0.0,0.0,0.0,mike,0
5.0,4651.79487179,4612.30769231,4652.82051282,4384.61538462,4639.48717949,4108.71794872,4651.28205128,4773.84615385,4658.46153846,4771.79487179,4530.25641026,4555.38461538,4456.41025641,4425.12820513,1695.0,1662.0,14.098,0.0,0.0,0.0,0.0,mike,0
6.0,4647.69230769,4610.76923077,4654.35897436,4383.07692308,4642.05128205,4113.33333333,4657.94871795,4780.51282051,4663.07692308,4785.12820513,4536.41025641,4554.87179487,4461.02564103,4429.74358974,1694.0,1663.0,14.105,0.0,0.0,0.0,0.0,mike,0
7.0,4642.56410256,4602.56410256,4648.71794872,4382.05128205,4638.97435897,4108.20512821,4648.71794872,4779.48717949,4656.92307692,4781.53846154,4530.76923077,4553.84615385,4456.41025641,4427.17948718,1695.0,1661.0,14.113,0.0,0.0,0.0,0.0,mike,0
8.0,4642.05128205,4605.12820513,4651.79487179,4385.64102564,4629.74358974,4103.07692308,4646.66666667,4781.53846154,4660.51282051,4777.94871795,4534.35897436,4565.12820513,4459.48717949,4430.76923077,1694.0,1662.0,14.121,0.0,0.0,0.0,0.0,mike,0
9.0,4640.51282051,4617.43589744,4657.94871795,4386.66666667,4625.64102564,4105.64102564,4653.33333333,4781.02564103,4672.82051282,4783.58974359,4543.07692308,4571.79487179,4466.15384615,4436.41025641,1694.0,1661.0,14.128,0.0,0.0,0.0,0.0,mike,0
10.0,4624.1025641,4609.74358974,4649.23076923,4380.51282051,4637.43589744,4105.64102564,4646.15384615,4767.69230769,4675.8974359,4770.76923077,4529.74358974,4556.41025641,4453.33333333,4426.66666667,1694.0,1663.0,14.136,0.0,0.0,0.0,0.0,mike,0
11.0,4605.64102564,4596.92307692,4643.58974359,4378.97435897,4647.17948718,4102.56410256,4641.02564103,4760.0,4674.87179487,4744.61538462,4517.43589744,4548.71794872,4440.51282051,4413.84615385,1695.0,1662.0,14.144,0.0,0.0,0.0,0.0,mike,0
12.0,4604.1025641,4604.61538462,4648.20512821,4384.1025641,4639.48717949,4105.12820513,4651.28205128,4767.69230769,4679.48717949,4740.0,4523.07692308,4552.30769231,4443.07692308,4413.84615385,1693.0,1662.0,14.153,0.0,0.0,0.0,0.0,mike,0
13.0,4600.51282051,4609.23076923,4647.69230769,4382.56410256,4628.71794872,4106.66666667,4650.76923077,4766.66666667,4681.53846154,4746.66666667,4522.56410256,4544.61538462,4442.56410256,4412.82051282,1695.0,1662.0,14.16,0.0,0.0,0.0,0.0,mike,0
14.0,4587.17948718,4604.1025641,4644.1025641,4380.51282051,4633.33333333,4105.12820513,4642.05128205,4765.64102564,4679.48717949,4748.71794872,4518.46153846,4542.05128205,4440.0,4409.74358974,1694.0,1661.0,14.168,0.0,0.0,0.0,0.0,mike,0
15.0,4583.07692308,4603.58974359,4647.17948718,4381.53846154,4642.56410256,4108.71794872,4646.66666667,4779.48717949,4680.0,4746.66666667,4524.1025641,4554.35897436,4444.61538462,4413.33333333,1694.0,1661.0,14.175,0.0,0.0,0.0,0.0,mike,0
16.0,4585.12820513,4606.15384615,4648.71794872,4380.51282051,4636.92307692,4109.74358974,4653.33333333,4785.12820513,4680.51282051,4744.61538462,4527.69230769,4555.8974359,4447.69230769,4417.94871795,1695.0,1661.0,14.184,0.0,0.0,0.0,0.0,mike,0
17.0,4578.46153846,4603.58974359,4646.66666667,4378.46153846,4626.15384615,4103.07692308,4646.15384615,4771.28205128,4677.94871795,4746.15384615,4523.07692308,4551.79487179,4445.64102564,4416.41025641,1694.0,1662.0,14.191,0.0,0.0,0.0,0.0,mike,0
18.0,4570.76923077,4603.07692308,4647.17948718,4379.48717949,4629.23076923,4105.12820513,4644.1025641,4769.23076923,4680.0,4751.28205128,4527.17948718,4554.35897436,4451.28205128,4417.43589744,1694.0,1661.0,14.2,0.0,0.0,0.0,0.0,mike,0
19.0,4572.82051282,4605.64102564,4647.17948718,4380.51282051,4633.84615385,4108.20512821,4648.71794872,4778.97435897,4685.64102564,4751.79487179,4535.8974359,4557.43589744,4458.97435897,4423.07692308,1695.0,1662.0,14.207,0.0,0.0,0.0,0.0,mike,0
20.0,4571.79487179,4603.58974359,4644.1025641,4378.97435897,4626.15384615,4098.46153846,4645.12820513,4772.30769231,4680.51282051,4745.12820513,4530.25641026,4554.87179487,4457.94871795,4423.07692308,1695.0,1661.0,14.214,0.0,0.0,0.0,0.0,mike,0
21.0,4571.79487179,4606.66666667,4647.69230769,4382.05128205,4635.38461538,4107.17948718,4646.66666667,4766.66666667,4677.43589744,4747.17948718,4527.69230769,4556.92307692,4458.97435897,4422.56410256,1693.0,1662.0,14.222,0.0,0.0,0.0,0.0,mike,0
22.0,4575.8974359,4610.25641026,4650.76923077,4384.61538462,4649.23076923,4125.12820513,4651.79487179,4771.28205128,4682.56410256,4753.84615385,4531.79487179,4557.43589744,4458.97435897,4421.53846154,1695.0,1662.0,14.23,0.0,0.0,0.0,0.0,mike,0
23.0,4569.74358974,4602.56410256,4636.92307692,4372.82051282,4635.8974359,4112.82051282,4641.02564103,4765.64102564,4673.84615385,4743.58974359,4524.1025641,4544.61538462,4444.1025641,4407.17948718,1694.0,1662.0,14.238,0.0,0.0,0.0,0.0,mike,0
24.0,4564.1025641,4598.46153846,4630.25641026,4370.25641026,4626.15384615,4096.92307692,4630.76923077,4760.0,4665.12820513,4732.82051282,4516.41025641,4533.84615385,4435.38461538,4400.0,1695.0,1663.0,14.247,0.0,0.0,0.0,0.0,mike,0
25.0,4569.74358974,4609.23076923,4638.46153846,4383.07692308,4640.51282051,4108.20512821,4643.07692308,4767.17948718,4675.38461538,4743.58974359,4523.07692308,4540.0,4443.58974359,4408.20512821,1694.0,1661.0,14.253,0.0,0.0,0.0,0.0,mike,0
26.0,4571.28205128,4611.28205128,4635.38461538,4380.0,4651.28205128,4116.92307692,4652.30769231,4768.71794872,4681.53846154,4750.76923077,4524.1025641,4542.05128205,4444.61538462,4408.20512821,1694.0,1664.0,14.261,0.0,0.0,0.0,0.0,mike,0
27.0,4566.15384615,4605.64102564,4626.15384615,4370.76923077,4648.71794872,4110.25641026,4645.64102564,4769.23076923,4677.94871795,4743.07692308,4518.46153846,4535.8974359,4438.97435897,4402.56410256,1696.0,1662.0,14.269,0.0,0.0,0.0,0.0,mike,0
28.0,4570.76923077,4608.20512821,4631.28205128,4378.97435897,4642.05128205,4113.84615385,4648.71794872,4778.46153846,4682.56410256,4744.1025641,4521.02564103,4543.07692308,4441.02564103,4408.71794872,1694.0,1662.0,14.277,0.0,0.0,0.0,0.0,mike,0
29.0,4582.56410256,4615.38461538,4643.07692308,4388.20512821,4643.07692308,4123.58974359,4658.97435897,4784.1025641,4689.74358974,4755.38461538,4524.1025641,4555.38461538,4446.15384615,4415.38461538,1695.0,1662.0,14.285,0.0,0.0,0.0,0.0,mike,0
30.0,4586.66666667,4616.41025641,4644.1025641,4383.07692308,4643.07692308,4116.41025641,4655.38461538,4776.41025641,4685.12820513,4754.35897436,4523.07692308,4554.35897436,4445.12820513,4413.33333333,1694.0,1662.0,14.294,0.0,0.0,0.0,0.0,mike,0
31.0,4586.66666667,4607.17948718,4638.97435897,4379.48717949,4629.23076923,4102.56410256,4644.1025641,4766.15384615,4676.41025641,4743.58974359,4522.56410256,4549.23076923,4441.53846154,4410.76923077,1694.0,1662.0,14.3,0.0,0.0,0.0,0.0,mike,0
32.0,4594.87179487,4605.12820513,4641.53846154,4381.02564103,4632.82051282,4103.58974359,4643.07692308,4768.71794872,4680.0,4746.15384615,4531.79487179,4556.41025641,4447.69230769,4417.94871795,1693.0,1662.0,14.308,0.0,0.0,0.0,0.0,mike,0
33.0,4608.20512821,4615.8974359,4654.35897436,4383.07692308,4651.79487179,4111.28205128,4652.30769231,4781.02564103,4689.74358974,4762.05128205,4540.51282051,4570.76923077,4460.51282051,4429.23076923,1694.0,1662.0,14.316,0.0,0.0,0.0,0.0,mike,0
34.0,4615.38461538,4620.0,4656.92307692,4385.12820513,4644.1025641,4107.17948718,4656.92307692,4785.12820513,4691.79487179,4767.17948718,4538.46153846,4568.71794872,4461.53846154,4429.74358974,1693.0,1662.0,14.324,0.0,0.0,0.0,0.0,mike,0
35.0,4614.35897436,4610.76923077,4647.69230769,4382.56410256,4631.79487179,4108.71794872,4654.87179487,4778.97435897,4685.12820513,4753.84615385,4533.84615385,4554.35897436,4454.35897436,4420.51282051,1694.0,1662.0,14.332,0.0,0.0,0.0,0.0,mike,0
36.0,4615.8974359,4610.76923077,4647.69230769,4381.53846154,4647.17948718,4121.53846154,4654.35897436,4775.38461538,4681.02564103,4746.66666667,4535.8974359,4556.92307692,4456.41025641,4423.07692308,1694.0,1662.0,14.34,0.0,0.0,0.0,0.0,mike,0
37.0,4626.15384615,4618.46153846,4656.41025641,4385.64102564,4652.30769231,4121.02564103,4655.38461538,4778.97435897,4683.07692308,4755.38461538,4538.97435897,4570.25641026,4462.56410256,4431.28205128,1693.0,1663.0,14.347,0.0,0.0,0.0,0.0,mike,0
38.0,4632.82051282,4619.48717949,4655.38461538,4389.23076923,4631.28205128,4105.64102564,4655.38461538,4781.02564103,4687.69230769,4764.1025641,4540.0,4570.25641026,4462.05128205,4431.28205128,1693.0,1662.0,14.355,0.0,0.0,0.0,0.0,mike,0
39.0,4634.87179487,4617.94871795,4651.79487179,4390.25641026,4631.28205128,4105.64102564,4660.0,4783.07692308,4689.23076923,4764.61538462,4540.51282051,4565.12820513,4461.53846154,4432.82051282,1692.0,1663.0,14.363,0.0,0.0,0.0,0.0,mike,0
40.0,4638.97435897,4618.46153846,4652.82051282,4390.25641026,4649.74358974,4121.02564103,4668.20512821,4789.23076923,4690.25641026,4765.12820513,4542.05128205,4570.25641026,4464.1025641,4439.48717949,1694.0,1663.0,14.371,0.0,0.0,0.0,0.0,mike,0
41.0,4641.53846154,4617.94871795,4654.35897436,4387.69230769,4652.82051282,4126.66666667,4670.25641026,4792.30769231,4694.87179487,4768.71794872,4544.1025641,4575.38461538,4467.17948718,4440.0,1692.0,1663.0,14.38,0.0,0.0,0.0,0.0,mike,0
42.0,4636.41025641,4608.20512821,4648.71794872,4380.51282051,4650.25641026,4118.97435897,4663.58974359,4786.15384615,4688.71794872,4765.12820513,4543.07692308,4568.71794872,4465.12820513,4432.82051282,1693.0,1661.0,14.386,0.0,0.0,0.0,0.0,mike,0
43.0,4631.79487179,4600.0,4641.53846154,4375.8974359,4645.12820513,4108.20512821,4651.79487179,4777.43589744,4677.43589744,4755.38461538,4537.43589744,4556.92307692,4457.43589744,4425.64102564,1693.0,1662.0,14.394,0.0,0.0,0.0,0.0,mike,0
44.0,4635.38461538,4602.05128205,4641.02564103,4380.0,4633.33333333,4104.1025641,4646.66666667,4774.87179487,4677.43589744,4747.69230769,4529.74358974,4552.30769231,4449.23076923,4420.0,1693.0,1662.0,14.402,0.0,0.0,0.0,0.0,mike,0
45.0,4633.33333333,4598.46153846,4635.8974359,4376.41025641,4625.12820513,4103.07692308,4645.12820513,4767.69230769,4673.33333333,4736.92307692,4518.97435897,4544.61538462,4434.35897436,4407.69230769,1693.0,1661.0,14.41,0.0,0.0,0.0,0.0,mike,0
46.0,4616.92307692,4584.61538462,4618.46153846,4362.05128205,4618.46153846,4095.38461538,4636.41025641,4751.28205128,4652.82051282,4722.56410256,4504.1025641,4524.61538462,4414.87179487,4389.74358974,1694.0,1661.0,14.419,0.0,0.0,0.0,0.0,mike,0
47.0,4611.28205128,4578.97435897,4612.30769231,4358.46153846,4615.8974359,4093.33333333,4633.84615385,4745.64102564,4645.12820513,4721.53846154,4502.56410256,4519.48717949,4410.25641026,4384.61538462,1694.0,1660.0,14.425,0.0,0.0,0.0,0.0,mike,0
48.0,4627.69230769,4589.74358974,4628.20512821,4369.23076923,4629.74358974,4102.56410256,4646.15384615,4763.07692308,4666.15384615,4736.92307692,4516.92307692,4538.46153846,4423.07692308,4397.94871795,1694.0,1662.0,14.433,0.0,0.0,0.0,0.0,mike,0
49.0,4645.64102564,4602.56410256,4643.58974359,4378.46153846,4646.66666667,4111.79487179,4659.48717949,4782.05128205,4685.12820513,4749.74358974,4524.1025641,4554.87179487,4433.33333333,4414.87179487,1695.0,1661.0,14.441,0.0,0.0,0.0,0.0,mike,0
50.0,4659.48717949,4613.84615385,4652.30769231,4388.71794872,4652.82051282,4121.53846154,4668.20512821,4783.58974359,4689.23076923,4759.48717949,4527.17948718,4563.07692308,4440.51282051,4425.12820513,1693.0,1662.0,14.449,0.0,0.0,0.0,0.0,mike,0
51.0,4670.25641026,4620.51282051,4663.07692308,4394.35897436,4648.20512821,4127.17948718,4672.82051282,4783.07692308,4690.76923077,4765.12820513,4538.46153846,4571.28205128,4446.66666667,4431.79487179,1695.0,1662.0,14.457,0.0,0.0,0.0,0.0,mike,0
52.0,4667.17948718,4610.76923077,4659.48717949,4385.64102564,4631.79487179,4112.82051282,4664.1025641,4783.58974359,4689.74358974,4758.46153846,4533.84615385,4571.28205128,4438.97435897,4430.25641026,1695.0,1662.0,14.467,0.0,0.0,0.0,0.0,mike,0
53.0,4664.1025641,4601.53846154,4649.74358974,4377.94871795,4631.28205128,4103.07692308,4654.35897436,4780.51282051,4687.17948718,4758.46153846,4520.0,4565.64102564,4431.79487179,4426.15384615,1695.0,1662.0,14.472,0.0,0.0,0.0,0.0,mike,0
54.0,4673.84615385,4610.76923077,4653.33333333,4383.58974359,4652.30769231,4110.76923077,4657.43589744,4783.58974359,4690.76923077,4769.23076923,4530.76923077,4569.74358974,4442.05128205,4431.79487179,1695.0,1661.0,14.481,0.0,0.0,0.0,0.0,mike,0
55.0,4675.38461538,4613.33333333,4654.35897436,4386.15384615,4650.25641026,4108.71794872,4656.41025641,4782.05128205,4690.76923077,4767.69230769,4538.97435897,4570.25641026,4446.66666667,4433.84615385,1695.0,1661.0,14.488,0.0,0.0,0.0,0.0,mike,0
56.0,4671.79487179,4602.56410256,4647.69230769,4380.0,4637.43589744,4104.61538462,4652.82051282,4774.87179487,4682.05128205,4756.41025641,4525.12820513,4558.46153846,4435.38461538,4427.69230769,1695.0,1661.0,14.496,0.0,0.0,0.0,0.0,mike,0
57.0,4675.38461538,4603.58974359,4646.15384615,4379.48717949,4634.87179487,4108.20512821,4655.38461538,4773.84615385,4675.8974359,4751.79487179,4516.92307692,4551.28205128,4429.23076923,4424.61538462,1695.0,1661.0,14.505,0.0,0.0,0.0,0.0,mike,0
58.0,4680.51282051,4613.33333333,4653.33333333,4389.74358974,4630.76923077,4104.61538462,4657.94871795,4780.51282051,4680.0,4758.46153846,4524.1025641,4554.35897436,4435.8974359,4426.66666667,1695.0,1660.0,14.511,0.0,0.0,0.0,0.0,mike,0
59.0,4685.64102564,4615.8974359,4653.84615385,4391.79487179,4641.53846154,4101.53846154,4656.92307692,4781.02564103,4683.58974359,4763.07692308,4530.25641026,4558.46153846,4444.61538462,4429.23076923,1694.0,1661.0,14.519,0.0,0.0,0.0,0.0,mike,0
60.0,4688.20512821,4616.92307692,4648.71794872,4384.61538462,4658.46153846,4107.69230769,4651.79487179,4770.76923077,4678.97435897,4753.33333333,4529.23076923,4555.8974359,4444.1025641,4427.69230769,1693.0,1661.0,14.527,0.0,0.0,0.0,0.0,mike,0
61.0,4681.53846154,4611.79487179,4645.64102564,4380.51282051,4641.53846154,4103.58974359,4643.58974359,4763.07692308,4670.76923077,4744.61538462,4522.05128205,4545.64102564,4433.33333333,4417.94871795,1693.0,1662.0,14.535,0.0,0.0,0.0,0.0,mike,0
62.0,4676.92307692,4600.51282051,4639.48717949,4376.92307692,4623.58974359,4095.8974359,4639.48717949,4764.1025641,4669.74358974,4751.28205128,4516.92307692,4536.41025641,4424.61538462,4408.20512821,1692.0,1662.0,14.543,0.0,0.0,0.0,0.0,mike,0
63.0,4685.12820513,4603.58974359,4638.97435897,4372.82051282,4642.56410256,4103.58974359,4646.15384615,4769.74358974,4677.94871795,4757.94871795,4522.05128205,4540.0,4430.76923077,4412.30769231,1693.0,1662.0,14.551,0.0,0.0,0.0,0.0,mike,0
64.0,4688.20512821,4604.61538462,4638.97435897,4369.23076923,4646.15384615,4099.48717949,4643.58974359,4762.56410256,4674.35897436,4751.28205128,4518.46153846,4541.53846154,4430.25641026,4411.28205128,1692.0,1663.0,14.558,0.0,0.0,0.0,0.0,mike,0
65.0,4683.07692308,4590.76923077,4633.33333333,4364.1025641,4631.79487179,4083.07692308,4634.35897436,4752.82051282,4660.51282051,4741.02564103,4503.07692308,4533.33333333,4414.35897436,4398.97435897,1693.0,1663.0,14.566,0.0,0.0,0.0,0.0,mike,0
66.0,4689.23076923,4591.79487179,4634.87179487,4364.61538462,4642.05128205,4092.82051282,4642.56410256,4761.02564103,4665.12820513,4743.58974359,4505.64102564,4534.87179487,4415.8974359,4403.58974359,1693.0,1663.0,14.574,0.0,0.0,0.0,0.0,mike,0
67.0,4696.92307692,4602.56410256,4641.02564103,4367.17948718,4644.1025641,4105.64102564,4650.76923077,4770.76923077,4675.8974359,4748.71794872,4520.0,4542.05128205,4428.71794872,4415.38461538,1692.0,1665.0,14.583,0.0,0.0,0.0,0.0,mike,0
68.0,4696.41025641,4596.41025641,4638.46153846,4364.1025641,4630.25641026,4093.33333333,4642.05128205,4765.64102564,4668.20512821,4745.64102564,4520.0,4541.53846154,4425.64102564,4412.82051282,1694.0,1664.0,14.59,0.0,0.0,0.0,0.0,mike,0
